#Wavelength (nm)	~2% slope	~1% slope
800	30.8769	30.56131
801	23.73839	24.49364
802	17.44471	16.61053
803	13.24362	11.80898
804	10.70067	9.52528
805	9.27391	8.87582
806	8.62905	9.63379
807	8.62042	12.37862
808	9.25908	19.43442
809	10.73225	38.55536
810	13.511	79.68718
811	18.63062	68.7723
812	28.27656	34.48125
813	46.08191	20.67998
814	70.30312	15.68817
815	76.02724	14.53663
816	57.43066	16.07371
817	40.1037	20.77657
818	30.15011	29.32165
819	25.21616	36.05116
820	23.46634	29.98611
821	24.20257	19.97418
822	27.55994	13.85106
823	34.29135	10.92471
824	44.65927	9.93457
825	53.49455	10.43307
826	48.83341	12.74554
827	34.11825	18.44383
828	21.96425	32.4066
829	14.68476	66.40093
830	10.55747	99.92353
831	8.18411	69.08859
832	6.80657	42.10597
833	6.04074	31.3181
834	5.69829	28.92838
835	5.70117	32.71568
836	6.04799	44.31513
837	6.81337	63.69381
838	8.18006	65.44067
839	10.52597	41.00698
840	14.62757	23.61165
841	22.0874	15.44994
842	36.13934	11.76655
843	60.85625	10.33164
844	88.66297	10.37967
845	91.35746	11.93451
846	73.87009	15.83993
847	58.90859	24.5717
848	51.36426	43.80947
849	50.25323	73.41964
850	55.37009	73.32101
851	68.02547	50.00953
852	88.00006	35.98618
853	99.40947	31.01005
854	77.98604	32.50366
855	47.05888	41.6941
856	27.7029	64.42449
857	17.53662	95.65613
858	12.11699	76.09676
859	9.08181	39.56392
860	7.31987	22.25597
861	6.30013	14.92116
862	5.76205	11.75594
863	5.58438	10.69204
864	5.72879	11.12249
865	6.22218	13.2056
866	7.16263	17.85715
867	8.74533	26.75963
868	11.29878	39.12117
869	15.26084	43.09946
870	20.80962	34.64376
871	26.72615	26.46079
872	29.97766	22.70213
873	29.32434	23.10744
874	27.19661	28.68795
875	26.21323	44.43668
876	28.0156	77.9104
877	34.93868	80.54604
878	52.94658	40.91063
879	84.41444	21.42961
880	61.00429	13.94143
881	22.51504	11.07466
882	9.12424	10.42816
883	4.43311	11.1931
884	2.47728	12.44165
885	1.53709	11.8083
886	1.03468	8.58942
887	0.744	5.59739
888	0.56521	3.90139
889	0.44972	3.1567
890	0.37181	3.10982
891	0.31668	4.02348
892	0.27494	8.42383
893	0.24003	62.53298
894	0.20722	11.50883
895	0.1739	1.96023
896	0.14007	0.69578
897	0.10798	0.34228
898	0.08029	0.20516
899	0.05841	0.14083
900	0.04217	0.1055
901	0.03058	0.08117
902	0.02245	0.0591
903	0.01676	0.03807
904	0.01276	0.02188
905	0.00991	0.01198
906	0.00786	0.00664
907	0.00637	0.00384
908	0.00527	0.00234
909	0.00444	0.00151
910	0.00382	0.00103
911	0.00335	0.00074
912	0.003	0.00055
913	0.00273	0.00044
914	0.00253	0.00036
915	0.00239	0.00031
916	0.0023	0.00029
917	0.00225	0.00027
918	0.00223	0.00027
919	0.00223	0.00027
920	0.00226	0.00027
921	0.0023	0.00026
922	0.00233	0.00023
923	0.00233	0.00018
924	0.00227	0.00013
925	0.00215	0.00009
926	0.00195	0.00006
927	0.00171	0.00004
928	0.00145	0.00003
929	0.00121	0.00002
930	0.001	0.00002
931	0.00083	0.00001
932	0.00068	0.00001
933	0.00057	0.00001
934	0.00048	0.00001
935	0.00042	0.00001
936	0.00036	0.00001
937	0.00032	0.00001
938	0.00028	0.00001
939	0.00026	0.00001
940	0.00024	0.00001
941	0.00022	0.00001
942	0.00021	0.00002
943	0.0002	0.00002
944	0.0002	0.00002
945	0.0002	0.00002
946	0.0002	0.00001
947	0.0002	0.00001
948	0.0002	0.00001
949	0.00021	0.00001
950	0.00023	0
951	0.00024	0
952	0.00026	0
953	0.00029	0
954	0.00032	0
955	0.00035	0
956	0.00039	0
957	0.00042	0
958	0.00045	0
959	0.00047	0
960	0.00047	0
961	0.00045	0
962	0.00042	0
963	0.00038	0
964	0.00034	0
965	0.0003	0
966	0.00027	0
967	0.00024	0
968	0.00022	0
969	0.0002	0
970	0.00018	0
971	0.00017	0
972	0.00016	0
973	0.00016	0
974	0.00015	0
975	0.00015	0
976	0.00015	0
977	0.00015	0
978	0.00015	0
979	0.00016	0
980	0.00016	0
981	0.00017	0
982	0.00018	0
983	0.0002	0
984	0.00022	0
985	0.00024	0
986	0.00026	0
987	0.00029	0
988	0.00032	0
989	0.00036	0
990	0.00039	0
991	0.00043	0
992	0.00046	0
993	0.00049	0
994	0.00051	0
995	0.00051	0
996	0.00051	0
997	0.00051	0
998	0.00049	0
999	0.00048	0
1000	0.00046	0
1001	0.00044	0
1002	0.00043	0
1003	0.00042	0
1004	0.00041	0
1005	0.0004	0
1006	0.0004	0
1007	0.0004	0
1008	0.0004	0
1009	0.00041	0
1010	0.00042	0
1011	0.00043	0
1012	0.00045	0
1013	0.00047	0
1014	0.0005	0
1015	0.00053	0
1016	0.00056	0
1017	0.0006	0
1018	0.00064	0
1019	0.00069	0
1020	0.00074	0
1021	0.00079	0
1022	0.00084	0
1023	0.0009	0
1024	0.00095	0
1025	0.001	0
1026	0.00104	0
1027	0.00108	0
1028	0.00112	0
1029	0.00115	0
1030	0.00119	0
1031	0.00121	0
1032	0.00124	0
1033	0.00127	0
1034	0.0013	0
1035	0.00133	0
1036	0.00136	0
1037	0.0014	0
1038	0.00145	0
1039	0.00149	0
1040	0.00155	0
1041	0.00161	0
1042	0.00169	0
1043	0.00177	0
1044	0.00185	0
1045	0.00195	0
1046	0.00206	0.00001
1047	0.00217	0.00001
1048	0.0023	0.00001
1049	0.00244	0.00001
1050	0.00258	0.00001
1051	0.00273	0.00001
1052	0.0029	0.00001
1053	0.00307	0.00001
1054	0.00325	0.00001
1055	0.00344	0.00001
1056	0.00363	0.00001
1057	0.00384	0.00001
1058	0.00406	0.00001
1059	0.00429	0.00001
1060	0.00454	0.00001
1061	0.0048	0.00002
1062	0.00508	0.00002
1063	0.00538	0.00002
1064	0.00571	0.00002
1065	0.00607	0.00002
1066	0.00647	0.00002
1067	0.0069	0.00002
1068	0.00738	0.00002
1069	0.00791	0.00003
1070	0.0085	0.00003
1071	0.00915	0.00003
1072	0.00986	0.00004
1073	0.01066	0.00004
1074	0.01155	0.00004
1075	0.01252	0.00005
1076	0.0136	0.00006
1077	0.01479	0.00006
1078	0.0161	0.00007
1079	0.01754	0.00008
1080	0.01911	0.00009
1081	0.02082	0.0001
1082	0.0227	0.00011
1083	0.02473	0.00012
1084	0.02695	0.00013
1085	0.02935	0.00014
1086	0.03196	0.00015
1087	0.03481	0.00016
1088	0.03791	0.00018
1089	0.04129	0.00019
1090	0.045	0.00021
1091	0.04908	0.00023
1092	0.05358	0.00025
1093	0.05858	0.00028
1094	0.06415	0.00031
1095	0.07038	0.00034
1096	0.07739	0.00038
1097	0.08531	0.00042
1098	0.09428	0.00047
1099	0.10448	0.00053
1100	0.11612	0.0006
1101	0.12943	0.00068
1102	0.14469	0.00077
1103	0.16224	0.00088
1104	0.18245	0.00101
1105	0.20576	0.00116
1106	0.23266	0.00134
1107	0.26374	0.00155
1108	0.29966	0.00181
1109	0.34114	0.00211
1110	0.38904	0.00246
1111	0.4443	0.00289
1112	0.50799	0.0034
1113	0.5813	0.004
1114	0.66558	0.00472
1115	0.76236	0.00557
1116	0.87337	0.00659
1117	1.00063	0.0078
1118	1.14647	0.00923
1119	1.31366	0.01093
1120	1.5055	0.01296
1121	1.726	0.01536
1122	1.97997	0.01824
1123	2.27331	0.02168
1124	2.61327	0.02583
1125	3.00871	0.03085
1126	3.47051	0.03699
1127	4.01196	0.04453
1128	4.64929	0.05387
1129	5.40221	0.06555
1130	6.29452	0.08026
1131	7.35472	0.09895
1132	8.61652	0.12286
1133	10.11919	0.15371
1134	11.90738	0.19378
1135	14.03033	0.24619
1136	16.53978	0.31514
1137	19.48643	0.40635
1138	22.91427	0.52754
1139	26.85293	0.68913
1140	31.30843	0.90517
1141	36.24706	1.19409
1142	41.60752	1.58134
1143	47.28147	2.10067
1144	53.12471	2.79745
1145	58.97105	3.73283
1146	64.65167	4.98968
1147	70.01534	6.6805
1148	74.94424	8.95744
1149	79.36214	12.02295
1150	83.23415	16.1363
1151	86.56035	21.60451
1152	89.36642	28.73571
1153	91.69405	37.72465
1154	93.593	48.4573
1155	95.1156	60.30145
1156	96.31325	72.07665
1157	97.23467	82.39436
1158	97.92516	90.24564
1159	98.42632	95.38532
1160	98.77597	98.23796
1161	99.00804	99.51938
1162	99.15279	99.9086
1163	99.23626	99.89659
1164	99.28031	99.77627
1165	99.30269	99.68822
1166	99.31704	99.67516
1167	99.33312	99.72665
1168	99.35718	99.81083
1169	99.39229	99.8945
1170	99.439	99.95389
1171	99.49582	99.97836
1172	99.55988	99.96935
1173	99.62755	99.93652
1174	99.69489	99.89312
1175	99.75824	99.85194
1176	99.81451	99.82246
1177	99.86148	99.80958
1178	99.89791	99.81367
1179	99.92358	99.83157
1180	99.93919	99.85809
1181	99.94623	99.88754
1182	99.94666	99.915
1183	99.94276	99.93718
1184	99.93684	99.95261
1185	99.93099	99.96153
1186	99.92693	99.96535
1187	99.92584	99.96602
1188	99.92831	99.96541
1189	99.93434	99.96485
1190	99.94337	99.9649
1191	99.9544	99.96536
1192	99.96609	99.96546
1193	99.97695	99.9642
1194	99.98548	99.96066
1195	99.99035	99.95435
1196	99.99051	99.94538
1197	99.98531	99.93443
1198	99.97456	99.92275
1199	99.95856	99.91185
1200	99.93807	99.90327
1201	99.91426	99.8983
1202	99.8886	99.89771
1203	99.86276	99.9017
1204	99.83848	99.90978
1205	99.8174	99.92094
1206	99.80101	99.93376
1207	99.79047	99.94669
1208	99.78656	99.95827
1209	99.7896	99.96733
1210	99.79947	99.97314
1211	99.81552	99.97551
1212	99.83672	99.9747
1213	99.86165	99.97134
1214	99.88863	99.96626
1215	99.9158	99.9603
1216	99.94124	99.95409
1217	99.96309	99.94793
1218	99.97966	99.94175
1219	99.98956	99.93504
1220	99.99171	99.927
1221	99.9855	99.91666
1222	99.97072	99.90304
1223	99.94765	99.88541
1224	99.91698	99.86342
1225	99.87978	99.83727
1226	99.83746	99.80775
1227	99.79165	99.77625
1228	99.74413	99.74462
1229	99.69672	99.71503
1230	99.65121	99.68976
1231	99.60928	99.67094
1232	99.57239	99.66035
1233	99.54169	99.65917
1234	99.51812	99.66792
1235	99.50222	99.68626
1236	99.49422	99.71317
1237	99.49404	99.74688
1238	99.50127	99.78512
1239	99.51527	99.82526
1240	99.53519	99.86456
1241	99.56	99.90044
1242	99.58859	99.93061
1243	99.61982	99.95331
1244	99.65256	99.96739
1245	99.68575	99.97238
1246	99.71845	99.96847
1247	99.74985	99.95644
1248	99.77929	99.93753
1249	99.80631	99.91335
1250	99.83063	99.88567
1251	99.85209	99.85627
1252	99.87072	99.82683
1253	99.88664	99.7988
1254	99.90009	99.77334
1255	99.91136	99.75128
1256	99.92076	99.73311
1257	99.92863	99.719
1258	99.93529	99.70885
1259	99.94099	99.70235
1260	99.94598	99.69904
1261	99.95039	99.69833
1262	99.95435	99.69963
1263	99.95789	99.70238
1264	99.961	99.70602
1265	99.96364	99.71012
1266	99.96572	99.71432
1267	99.96716	99.71838
1268	99.96789	99.72221
1269	99.96783	99.72581
1270	99.96693	99.72931
1271	99.96522	99.73297
1272	99.96269	99.73712
1273	99.95944	99.74214
1274	99.9556	99.74847
1275	99.95128	99.7565
1276	99.94669	99.76659
1277	99.94201	99.77896
1278	99.93745	99.79372
1279	99.93319	99.81073
1280	99.92942	99.82969
1281	99.92629	99.85004
1282	99.92393	99.87106
1283	99.92242	99.89182
1284	99.9218	99.91128
1285	99.92208	99.9284
1286	99.92322	99.94214
1287	99.92515	99.95162
1288	99.92778	99.95618
1289	99.93098	99.95542
1290	99.93464	99.9493
1291	99.9386	99.93813
1292	99.94274	99.92254
1293	99.94693	99.90346
1294	99.95106	99.88205
1295	99.95503	99.85962
1296	99.95879	99.8375
1297	99.96225	99.81696
1298	99.9654	99.79914
1299	99.96822	99.78494
1300	99.97067	99.77502
1301	99.97279	99.7697
1302	99.97456	99.76909
1303	99.97597	99.77302
1304	99.97702	99.78113
1305	99.9777	99.79293
1306	99.97799	99.80783
1307	99.97786	99.8252
1308	99.97727	99.84441
1309	99.9762	99.86481
1310	99.97461	99.8858
1311	99.97247	99.90668
1312	99.96977	99.92677
1313	99.96652	99.94534
1314	99.96275	99.96155
1315	99.95849	99.9746
1316	99.95382	99.98369
1317	99.94884	99.98811
1318	99.94366	99.9874
1319	99.93842	99.98138
1320	99.93324	99.97024
1321	99.92827	99.95467
1322	99.9236	99.93574
1323	99.91929	99.91492
1324	99.91533	99.89391
1325	99.91158	99.87438
1326	99.90778	99.85788
1327	99.90343	99.8455
1328	99.89776	99.83783
1329	99.88961	99.83484
1330	99.87732	99.83608
1331	99.85857	99.841
1332	99.83023	99.84933
1333	99.78806	99.86155
1334	99.72647	99.87901
1335	99.63821	99.90348
1336	99.51391	99.93537
1337	99.34171	99.96983
1338	99.10678	99.98961
1339	98.79082	99.95337
1340	98.37161	99.7779
1341	97.82278	99.3139
1342	97.11346	98.31786
1343	96.20861	96.43073
1344	95.06962	93.18832
1345	93.65557	88.1031
1346	91.92528	80.84763
1347	89.84019	71.49821
1348	87.36806	60.67983
1349	84.48724	49.43592
1350	81.19098	38.85061
1351	77.49117	29.68445
1352	73.42075	22.24529
1353	69.03381	16.48093
1354	64.40336	12.14838
1355	59.61644	8.95071
1356	54.76746	6.61248
1357	49.9508	4.9081
1358	45.25375	3.66461
1359	40.75098	2.75417
1360	36.50101	2.08416
1361	32.54494	1.58808
1362	28.90705	1.21836
1363	25.59672	0.94095
1364	22.61119	0.73139
1365	19.93853	0.57203
1366	17.56048	0.45006
1367	15.45484	0.35611
1368	13.59751	0.28332
1369	11.96396	0.22659
1370	10.53023	0.18213
1371	9.2737	0.1471
1372	8.17342	0.11937
1373	7.21035	0.0973
1374	6.36741	0.07965
1375	5.62939	0.06548
1376	4.98289	0.05405
1377	4.41613	0.04479
1378	3.91884	0.03726
1379	3.48206	0.03111
1380	3.09799	0.02607
1381	2.76108	0.02193
1382	2.46401	0.01852
1383	2.20174	0.01569
1384	1.96992	0.01333
1385	1.76475	0.01136
1386	1.58297	0.00972
1387	1.4217	0.00833
1388	1.27847	0.00716
1389	1.15111	0.00618
1390	1.03774	0.00534
1391	0.9367	0.00463
1392	0.84656	0.00402
1393	0.76606	0.0035
1394	0.69409	0.00305
1395	0.62968	0.00267
1396	0.57199	0.00234
1397	0.52025	0.00205
1398	0.47381	0.00181
1399	0.43208	0.00159
1400	0.39456	0.00141
1401	0.36065	0.00124
1402	0.33011	0.0011
1403	0.30257	0.00097
1404	0.27772	0.00086
1405	0.25526	0.00077
1406	0.23495	0.00068
1407	0.21657	0.00061
1408	0.19991	0.00054
1409	0.18479	0.00049
1410	0.17107	0.00043
1411	0.15859	0.00039
1412	0.14724	0.00035
1413	0.1369	0.00031
1414	0.12746	0.00028
1415	0.11885	0.00025
1416	0.11097	0.00023
1417	0.10377	0.00021
1418	0.09717	0.00019
1419	0.09111	0.00017
1420	0.08555	0.00015
1421	0.08043	0.00014
1422	0.07573	0.00013
1423	0.07138	0.00012
1424	0.06738	0.00011
1425	0.06367	0.0001
1426	0.06024	0.00009
1427	0.05706	0.00008
1428	0.05411	0.00008
1429	0.05137	0.00007
1430	0.04881	0.00006
1431	0.04643	0.00006
1432	0.0442	0.00005
1433	0.04212	0.00005
1434	0.04017	0.00005
1435	0.03833	0.00004
1436	0.0366	0.00004
1437	0.03498	0.00004
1438	0.03344	0.00004
1439	0.03199	0.00003
1440	0.03061	0.00003
1441	0.0293	0.00003
1442	0.02807	0.00003
1443	0.02688	0.00003
1444	0.02576	0.00003
1445	0.02468	0.00002
1446	0.02365	0.00002
1447	0.02266	0.00002
1448	0.02171	0.00002
1449	0.0208	0.00002
1450	0.01992	0.00002
1451	0.01908	0.00002
1452	0.01827	0.00002
1453	0.01749	0.00002
1454	0.01673	0.00002
1455	0.01601	0.00002
1456	0.01532	0.00002
1457	0.01465	0.00001
1458	0.01401	0.00001
1459	0.01339	0.00001
1460	0.0128	0.00001
1461	0.01223	0.00001
1462	0.01168	0.00001
1463	0.01116	0.00001
1464	0.01066	0.00001
1465	0.01019	0.00001
1466	0.00973	0.00001
1467	0.0093	0.00001
1468	0.00889	0.00001
1469	0.0085	0.00001
1470	0.00813	0.00001
1471	0.00777	0.00001
1472	0.00744	0.00001
1473	0.00712	0.00001
1474	0.00682	0.00001
1475	0.00654	0.00001
1476	0.00627	0.00001
1477	0.00602	0.00001
1478	0.00578	0.00001
1479	0.00556	0.00001
1480	0.00535	0.00001
1481	0.00515	0.00001
1482	0.00497	0
1483	0.00479	0
1484	0.00463	0
1485	0.00447	0
1486	0.00433	0
1487	0.00419	0
1488	0.00406	0
1489	0.00394	0
1490	0.00383	0
1491	0.00373	0
1492	0.00363	0
1493	0.00354	0
1494	0.00345	0
1495	0.00338	0
1496	0.0033	0
1497	0.00323	0
1498	0.00317	0
1499	0.00311	0
1500	0.00306	0
1501	0.00301	0
1502	0.00296	0
1503	0.00292	0
1504	0.00288	0
1505	0.00285	0
1506	0.00282	0
1507	0.00279	0
1508	0.00277	0
1509	0.00275	0
1510	0.00273	0
1511	0.00272	0
1512	0.0027	0
1513	0.00269	0
1514	0.00269	0
1515	0.00268	0
1516	0.00268	0
1517	0.00268	0
1518	0.00268	0
1519	0.00268	0
1520	0.00269	0
1521	0.0027	0
1522	0.00271	0
1523	0.00271	0
1524	0.00273	0
1525	0.00274	0
1526	0.00275	0
1527	0.00276	0
1528	0.00278	0
1529	0.00279	0
1530	0.0028	0
1531	0.00281	0
1532	0.00283	0
1533	0.00284	0
1534	0.00285	0
1535	0.00286	0
1536	0.00286	0
1537	0.00287	0
1538	0.00287	0
1539	0.00287	0
1540	0.00287	0
1541	0.00286	0
1542	0.00286	0
1543	0.00285	0
1544	0.00283	0
1545	0.00282	0
1546	0.0028	0
1547	0.00278	0
1548	0.00275	0
1549	0.00273	0
1550	0.0027	0
1551	0.00267	0
1552	0.00264	0
1553	0.0026	0
1554	0.00257	0
1555	0.00253	0
1556	0.00249	0
1557	0.00245	0
1558	0.00242	0
1559	0.00238	0
1560	0.00234	0
1561	0.0023	0
1562	0.00226	0
1563	0.00223	0
1564	0.00219	0
1565	0.00216	0
1566	0.00212	0
1567	0.00209	0
1568	0.00206	0
1569	0.00203	0
1570	0.002	0
1571	0.00197	0
1572	0.00195	0
1573	0.00192	0
1574	0.0019	0
1575	0.00188	0
1576	0.00186	0
1577	0.00184	0
1578	0.00182	0
1579	0.00181	0
1580	0.0018	0
1581	0.00179	0
1582	0.00178	0
1583	0.00177	0
1584	0.00176	0
1585	0.00176	0
1586	0.00176	0
1587	0.00176	0
1588	0.00176	0
1589	0.00176	0
1590	0.00177	0
1591	0.00177	0
1592	0.00178	0
1593	0.00179	0
1594	0.00181	0
1595	0.00182	0
1596	0.00184	0
1597	0.00186	0.00001
1598	0.00188	0.00001
1599	0.0019	0.00001
1600	0.00193	0.00001
1601	0.00195	0.00001
1602	0.00198	0.00001
1603	0.00202	0.00001
1604	0.00205	0.00001
1605	0.00209	0.00001
1606	0.00214	0.00001
1607	0.00218	0.00001
1608	0.00223	0.00001
1609	0.00228	0.00001
1610	0.00234	0.00001
1611	0.0024	0.00001
1612	0.00246	0.00001
1613	0.00253	0.00001
1614	0.0026	0.00001
1615	0.00268	0.00002
1616	0.00276	0.00002
1617	0.00285	0.00002
1618	0.00295	0.00002
1619	0.00305	0.00002
1620	0.00316	0.00002
1621	0.00327	0.00002
1622	0.0034	0.00002
1623	0.00353	0.00002
1624	0.00367	0.00002
1625	0.00382	0.00002
1626	0.00398	0.00002
1627	0.00415	0.00002
1628	0.00433	0.00002
1629	0.00453	0.00002
1630	0.00473	0.00002
1631	0.00496	0.00002
1632	0.00519	0.00002
1633	0.00545	0.00002
1634	0.00572	0.00002
1635	0.006	0.00002
1636	0.00631	0.00003
1637	0.00664	0.00003
1638	0.00699	0.00003
1639	0.00736	0.00003
1640	0.00776	0.00003
1641	0.00819	0.00003
1642	0.00864	0.00003
1643	0.00912	0.00003
1644	0.00963	0.00003
1645	0.01018	0.00003
1646	0.01075	0.00003
1647	0.01136	0.00003
1648	0.01201	0.00003
1649	0.0127	0.00004
1650	0.01342	0.00004
1651	0.01418	0.00004
1652	0.01498	0.00004
1653	0.01582	0.00004
1654	0.01669	0.00005
1655	0.01761	0.00005
1656	0.01856	0.00005
1657	0.01955	0.00005
1658	0.02058	0.00006
1659	0.02164	0.00006
1660	0.02272	0.00006
1661	0.02384	0.00007
1662	0.02498	0.00007
1663	0.02615	0.00008
1664	0.02733	0.00008
1665	0.02853	0.00009
1666	0.02975	0.0001
1667	0.03097	0.0001
1668	0.0322	0.00011
1669	0.03343	0.00012
1670	0.03467	0.00013
1671	0.0359	0.00014
1672	0.03714	0.00016
1673	0.03837	0.00017
1674	0.03961	0.00019
1675	0.04084	0.0002
1676	0.04208	0.00022
1677	0.04332	0.00025
1678	0.04457	0.00027
1679	0.04582	0.0003
1680	0.04709	0.00034
1681	0.04838	0.00037
1682	0.04969	0.00042
1683	0.05102	0.00047
1684	0.05239	0.00052
1685	0.0538	0.00059
1686	0.05524	0.00066
1687	0.05674	0.00075
1688	0.0583	0.00084
1689	0.05992	0.00095
1690	0.06161	0.00108
1691	0.06338	0.00123
1692	0.06524	0.00141
1693	0.06719	0.00161
1694	0.06925	0.00184
1695	0.07142	0.00211
1696	0.07372	0.00243
1697	0.07616	0.0028
1698	0.07874	0.00323
1699	0.08148	0.00373
1700	0.0844	0.00432
1701	0.0875	0.005
1702	0.09081	0.0058
1703	0.09434	0.00674
1704	0.09811	0.00782
1705	0.10214	0.00909
1706	0.10645	0.01057
1707	0.11107	0.01229
1708	0.11602	0.01428
1709	0.12133	0.01659
1710	0.12702	0.01926
1711	0.13314	0.02234
1712	0.13972	0.02588
1713	0.1468	0.02994
1714	0.15443	0.0346
1715	0.16265	0.03994
1716	0.17152	0.04604
1717	0.1811	0.05303
1718	0.19145	0.06101
1719	0.20265	0.07016
1720	0.21478	0.08067
1721	0.22791	0.09274
1722	0.24216	0.10669
1723	0.25762	0.12287
1724	0.27443	0.14173
1725	0.29271	0.16386
1726	0.31261	0.18998
1727	0.33431	0.22105
1728	0.35799	0.2583
1729	0.38385	0.30333
1730	0.41213	0.35828
1731	0.44308	0.42605
1732	0.477	0.51053
1733	0.51421	0.61714
1734	0.55507	0.75352
1735	0.6	0.93058
1736	0.64945	1.16431
1737	0.70395	1.4787
1738	0.76407	1.91058
1739	0.83048	2.51815
1740	0.90392	3.39594
1741	0.98523	4.7015
1742	1.07537	6.70167
1743	1.1754	9.84171
1744	1.28655	14.7876
1745	1.4102	22.13359
1746	1.54793	30.90469
1747	1.70151	36.49289
1748	1.87298	34.81182
1749	2.06465	28.65307
1750	2.27912	22.39235
1751	2.5194	17.57877
1752	2.78887	14.15963
1753	3.09138	11.75818
1754	3.43133	10.05302
1755	3.81369	8.82305
1756	4.24411	7.9237
1757	4.72896	7.26075
1758	5.27544	6.77205
1759	5.89166	6.41595
1760	6.58665	6.16412
1761	7.37127	5.99678
1762	8.25609	5.90106
1763	9.25332	5.86788
1764	10.37614	5.89134
1765	11.63857	5.96793
1766	13.0552	6.09607
1767	14.64079	6.27577
1768	16.4097	6.50846
1769	18.37506	6.79691
1770	20.54774	7.14512
1771	22.93509	7.55842
1772	25.53947	8.04342
1773	28.35657	8.60815
1774	31.37391	9.26207
1775	34.56943	10.01617
1776	37.91069	10.88294
1777	41.35487	11.87632
1778	44.84972	13.01148
1779	48.33587	14.30438
1780	51.75006	15.77106
1781	55.0248	17.42456
1782	58.10651	19.27831
1783	60.94584	21.33917
1784	63.50528	23.60593
1785	65.76105	26.06578
1786	67.70338	28.69094
1787	69.33559	31.43586
1788	70.672	34.23634
1789	71.73534	37.01151
1790	72.55392	39.66952
1791	73.15901	42.11678
1792	73.58257	44.26926
1793	73.85551	46.06351
1794	74.00645	47.46439
1795	74.06091	48.46792
1796	74.04092	49.09866
1797	73.96487	49.40312
1798	73.84761	49.44122
1799	73.70061	49.27799
1800	73.5323	48.97692