##TITLE=  
##JCAMP-DX= 4.24
##OWNER= OCLI, (707) 545-6440, Spectrum Copyright (C) 1990
##ORIGIN= OCLI, 2789 Northpoint Pkwy., Santa Rosa, Ca. 95407
##DATA TYPE= UV-VIS or VISUAL or VIS-NIR or IR SPECTRUM
##DATE= 04/05/11
##TIME= 13:32:09
##SPECTROMETER/DATA SYSTEM= Windows Spectral Analysis 1.0
$REFERENCE=  
$RUN NO.=  
$WO=  
$OPERATOR=  
$COMMENTS=  
$ABSLABEL= Nanometers
$ORDLABEL=  % Transmission
##XUNITS= NANOMETERS
##YUNITS= % TRANSMISSION
##XFACTOR= 1.000000
##YFACTOR= 1.000000
##FIRSTX= 2192.740234
##LASTX= 977.354065
##FIRSTY= 0.422173
##NPOINTS= 1221
##XYDATA= (X..Y)
 2192.7402     0.422173
 2191.7434     0.418762
 2190.7468     0.428510
 2189.7500     0.426134
 2188.7534     0.438188
 2187.7568     0.459721
 2186.7600     0.410994
 2185.7634     0.394324
 2184.7666     0.432446
 2183.7700     0.440522
 2182.7732     0.438758
 2181.7766     0.435002
 2180.7798     0.419306
 2179.7832     0.406436
 2178.7864     0.390434
 2177.7898     0.406972
 2176.7930     0.417829
 2175.7964     0.435469
 2174.7996     0.402470
 2173.8027     0.355240
 2172.8059     0.352269
 2171.8093     0.378631
 2170.8125     0.438200
 2169.8159     0.403331
 2168.8191     0.372855
 2167.8225     0.380734
 2166.8257     0.390195
 2165.8291     0.400765
 2164.8323     0.411152
 2163.8357     0.439362
 2162.8389     0.432742
 2161.8423     0.395668
 2160.8455     0.407777
 2159.8489     0.434344
 2158.8523     0.384763
 2157.8555     0.379518
 2156.8589     0.450657
 2155.8621     0.462744
 2154.8655     0.443445
 2153.8687     0.425350
 2152.8721     0.391216
 2151.8752     0.403035
 2150.8787     0.428896
 2149.8818     0.383604
 2148.8853     0.409183
 2147.8884     0.433497
 2146.8918     0.430995
 2145.8950     0.455163
 2144.8987     0.438509
 2143.9019     0.410005
 2142.9053     0.351284
 2141.9084     0.389022
 2140.9119     0.427050
 2139.9150     0.424697
 2138.9185     0.448891
 2137.9216     0.417272
 2136.9250     0.375504
 2135.9282     0.400526
 2134.9316     0.424073
 2133.9348     0.418813
 2132.9382     0.414862
 2131.9414     0.412447
 2130.9448     0.423645
 2129.9482     0.421767
 2128.9514     0.430666
 2127.9548     0.439339
 2126.9580     0.436595
 2125.9614     0.423865
 2124.9644     0.385799
 2123.9678     0.382690
 2122.9709     0.403398
 2121.9744     0.412321
 2120.9775     0.399070
 2119.9810     0.372621
 2118.9841     0.369488
 2117.9875     0.380909
 2116.9907     0.401059
 2115.9941     0.410646
 2114.9973     0.419326
 2114.0007     0.426933
 2113.0039     0.424026
 2112.0073     0.400306
 2111.0105     0.376354
 2110.0139     0.396491
 2109.0171     0.426221
 2108.0205     0.424719
 2107.0237     0.390386
 2106.0271     0.376158
 2105.0303     0.395474
 2104.0337     0.403238
 2103.0369     0.380594
 2102.0403     0.370756
 2101.0435     0.378376
 2100.0469     0.408207
 2099.0503     0.417240
 2098.0535     0.405410
 2097.0569     0.413495
 2096.0603     0.410175
 2095.0637     0.408288
 2094.0669     0.396340
 2093.0703     0.384356
 2092.0735     0.382099
 2091.0769     0.390631
 2090.0801     0.398346
 2089.0835     0.395982
 2088.0867     0.415287
 2087.0901     0.413470
 2086.0933     0.411196
 2085.0967     0.407870
 2084.0999     0.406138
 2083.1033     0.404994
 2082.1064     0.385139
 2081.1099     0.403152
 2080.1130     0.409842
 2079.1165     0.398028
 2078.1196     0.407095
 2077.1230     0.404648
 2076.1260     0.391500
 2075.1294     0.381446
 2074.1326     0.389944
 2073.1360     0.388599
 2072.1392     0.367214
 2071.1426     0.383640
 2070.1460     0.409773
 2069.1492     0.408882
 2068.1526     0.397311
 2067.1558     0.395372
 2066.1592     0.403503
 2065.1624     0.420650
 2064.1658     0.410325
 2063.1689     0.381072
 2062.1724     0.369872
 2061.1755     0.377088
 2060.1790     0.392618
 2059.1821     0.391539
 2058.1855     0.398869
 2057.1887     0.413538
 2056.1921     0.412403
 2055.1953     0.410099
 2054.1987     0.401072
 2053.2019     0.408045
 2052.2053     0.405933
 2051.2085     0.404871
 2050.2119     0.403713
 2049.2151     0.385681
 2048.2185     0.408257
 2047.2219     0.414893
 2046.2253     0.396583
 2045.2285     0.394345
 2044.2319     0.377797
 2043.2351     0.394333
 2042.2385     0.418046
 2041.2417     0.407609
 2040.2451     0.381305
 2039.2482     0.379472
 2038.2516     0.386218
 2037.2548     0.376783
 2036.2582     0.384844
 2035.2614     0.376210
 2034.2648     0.375813
 2033.2679     0.389117
 2032.2714     0.387201
 2031.2745     0.372496
 2030.2780     0.396425
 2029.2811     0.425408
 2028.2845     0.393002
 2027.2877     0.360487
 2026.2911     0.375693
 2025.2946     0.382321
 2024.2977     0.373060
 2023.3011     0.380542
 2022.3046     0.404226
 2021.3077     0.419859
 2020.3112     0.418609
 2019.3143     0.394973
 2018.3177     0.376375
 2017.3209     0.391846
 2016.3243     0.392870
 2015.3274     0.383880
 2014.3308     0.368276
 2013.3340     0.367541
 2012.3374     0.374297
 2011.3406     0.373523
 2010.3440     0.373368
 2009.3472     0.371435
 2008.3506     0.385788
 2007.3538     0.386159
 2006.3572     0.379809
 2005.3604     0.378115
 2004.3638     0.376927
 2003.3669     0.382383
 2002.3704     0.383241
 2001.3735     0.390481
 2000.3770     0.404016
 1999.3802     0.409467
 1998.3835     0.401551
 1997.3868     0.380548
 1996.3903     0.396315
 1995.3936     0.395637
 1994.3969     0.370704
 1993.4001     0.377618
 1992.4034     0.370807
 1991.4067     0.370978
 1990.4099     0.384197
 1989.4132     0.395504
 1988.4165     0.394200
 1987.4198     0.394997
 1986.4231     0.400759
 1985.4265     0.377399
 1984.4298     0.360614
 1983.4331     0.353027
 1982.4364     0.382995
 1981.4397     0.410577
 1980.4430     0.386655
 1979.4463     0.370732
 1978.4496     0.369375
 1977.4529     0.370336
 1976.4562     0.368389
 1975.4595     0.364579
 1974.4628     0.370766
 1973.4661     0.378643
 1972.4694     0.371702
 1971.4727     0.377890
 1970.4760     0.374503
 1969.4792     0.358028
 1968.4825     0.386023
 1967.4858     0.407182
 1966.4891     0.410812
 1965.4924     0.381295
 1964.4957     0.368119
 1963.4990     0.388837
 1962.5023     0.372952
 1961.5056     0.364663
 1960.5090     0.363381
 1959.5123     0.361970
 1958.5156     0.380996
 1957.5189     0.387389
 1956.5222     0.365092
 1955.5255     0.371242
 1954.5288     0.378208
 1953.5321     0.362918
 1952.5354     0.354827
 1951.5387     0.347089
 1950.5420     0.358050
 1949.5453     0.376786
 1948.5486     0.376463
 1947.5519     0.368513
 1946.5552     0.362180
 1945.5585     0.367057
 1944.5618     0.373929
 1943.5651     0.364717
 1942.5684     0.348976
 1941.5715     0.360537
 1940.5748     0.372735
 1939.5781     0.366933
 1938.5814     0.372462
 1937.5848     0.371815
 1936.5881     0.346644
 1935.5916     0.352296
 1934.5948     0.364182
 1933.5981     0.361755
 1932.6014     0.381150
 1931.6047     0.365075
 1930.6080     0.355332
 1929.6113     0.367130
 1928.6146     0.358762
 1927.6179     0.355682
 1926.6212     0.359245
 1925.6245     0.376636
 1924.6278     0.374887
 1923.6311     0.343506
 1922.6344     0.337214
 1921.6377     0.339439
 1920.6410     0.348666
 1919.6443     0.356111
 1918.6476     0.352634
 1917.6509     0.360415
 1916.6541     0.378000
 1915.6573     0.377549
 1914.6606     0.361297
 1913.6639     0.354826
 1912.6672     0.348219
 1911.6705     0.346132
 1910.6740     0.343095
 1909.6772     0.353276
 1908.6805     0.371225
 1907.6840     0.373563
 1906.6873     0.369354
 1905.6906     0.357498
 1904.6938     0.359422
 1903.6971     0.367283
 1902.7004     0.371083
 1901.7037     0.356138
 1900.7070     0.340598
 1899.7103     0.339644
 1898.7136     0.340105
 1897.7169     0.345968
 1896.7202     0.353622
 1895.7235     0.337771
 1894.7268     0.323837
 1893.7301     0.348363
 1892.7333     0.364579
 1891.7366     0.350119
 1890.7399     0.354966
 1889.7432     0.377393
 1888.7465     0.385019
 1887.7498     0.377140
 1886.7531     0.364646
 1885.7565     0.361760
 1884.7598     0.356755
 1883.7631     0.353839
 1882.7664     0.361033
 1881.7697     0.357574
 1880.7729     0.356198
 1879.7762     0.361398
 1878.7795     0.355267
 1877.7830     0.351397
 1876.7863     0.365982
 1875.7896     0.359937
 1874.7928     0.339237
 1873.7961     0.351166
 1872.7994     0.370325
 1871.8027     0.364657
 1870.8060     0.347233
 1869.8093     0.346535
 1868.8125     0.343221
 1867.8158     0.331419
 1866.8191     0.325027
 1865.8224     0.324536
 1864.8257     0.342098
 1863.8290     0.344195
 1862.8323     0.328445
 1861.8357     0.333252
 1860.8390     0.345191
 1859.8423     0.342434
 1858.8456     0.345947
 1857.8489     0.350351
 1856.8522     0.357919
 1855.8555     0.354632
 1854.8588     0.354729
 1853.8621     0.360526
 1852.8654     0.352354
 1851.8687     0.353530
 1850.8719     0.356962
 1849.8752     0.352903
 1848.8787     0.338214
 1847.8820     0.338585
 1846.8853     0.342408
 1845.8885     0.333201
 1844.8918     0.332977
 1843.8950     0.349762
 1842.8983     0.357798
 1841.9016     0.338765
 1840.9049     0.322338
 1839.9082     0.345693
 1838.9115     0.368254
 1837.9148     0.360553
 1836.9182     0.365988
 1835.9215     0.361804
 1834.9248     0.362932
 1833.9281     0.348905
 1832.9314     0.333267
 1831.9347     0.342780
 1830.9380     0.351478
 1829.9413     0.360140
 1828.9446     0.340084
 1827.9479     0.342000
 1826.9512     0.360548
 1825.9545     0.357672
 1824.9578     0.361987
 1823.9611     0.353874
 1822.9644     0.342236
 1821.9677     0.359740
 1820.9709     0.362374
 1819.9742     0.361617
 1818.9775     0.355910
 1817.9808     0.346798
 1816.9841     0.363326
 1815.9874     0.363559
 1814.9907     0.347879
 1813.9940     0.348448
 1812.9973     0.364645
 1812.0007     0.367394
 1811.0040     0.358225
 1810.0073     0.357935
 1809.0106     0.362230
 1808.0139     0.359393
 1807.0172     0.363381
 1806.0205     0.360190
 1805.0238     0.357569
 1804.0271     0.371747
 1803.0304     0.369269
 1802.0337     0.373774
 1801.0370     0.378289
 1800.0403     0.374950
 1799.0436     0.372690
 1798.0469     0.370461
 1797.0502     0.373168
 1796.0535     0.367754
 1795.0566     0.373220
 1794.0599     0.379280
 1793.0632     0.383862
 1792.0665     0.396188
 1791.0698     0.391270
 1790.0731     0.391419
 1789.0765     0.394423
 1788.0800     0.392984
 1787.0833     0.409880
 1786.0865     0.415711
 1785.0898     0.422574
 1784.0931     0.453577
 1783.0964     0.475906
 1782.0997     0.495034
 1781.1030     0.526685
 1780.1063     0.588568
 1779.1096     0.695040
 1778.1129     0.868980
 1777.1162     1.190203
 1776.1195     1.787925
 1775.1228     2.989251
 1774.1261     5.395739
 1773.1294     9.948933
 1772.1327    18.781082
 1771.1360    32.853649
 1770.1392    51.436829
 1769.1425    69.821167
 1768.1458    82.630615
 1767.1490    88.661034
 1766.1523    91.051208
 1765.1556    93.021049
 1764.1589    94.307167
 1763.1624    95.318886
 1762.1656    96.399971
 1761.1689    97.338722
 1760.1724    98.057510
 1759.1757    98.597557
 1758.1790    98.670723
 1757.1823    98.562035
 1756.1855    98.514542
 1755.1888    98.437401
 1754.1921    98.460625
 1753.1954    98.573311
 1752.1987    98.674881
 1751.2020    98.794464
 1750.2053    98.922218
 1749.2086    98.971169
 1748.2119    99.027466
 1747.2152    99.061684
 1746.2184    98.994118
 1745.2217    98.916519
 1744.2250    98.951927
 1743.2283    99.144722
 1742.2316    99.285690
 1741.2349    99.425156
 1740.2382    99.550682
 1739.2415    99.626839
 1738.2449    99.639114
 1737.2482    99.536705
 1736.2515    99.501137
 1735.2548    99.417084
 1734.2581    99.300667
 1733.2614    99.196625
 1732.2646    99.058006
 1731.2679    99.039978
 1730.2714    99.055565
 1729.2747    99.121040
 1728.2780    99.329620
 1727.2813    99.485756
 1726.2845    99.638969
 1725.2878    99.668228
 1724.2911    99.671173
 1723.2944    99.645081
 1722.2976    99.481575
 1721.3009    99.271667
 1720.3042    98.995010
 1719.3075    98.713615
 1718.3108    98.430351
 1717.3141    98.170586
 1716.3174    97.979286
 1715.3207    97.901756
 1714.3240    97.873085
 1713.3274    97.921448
 1712.3307    98.064568
 1711.3340    98.359253
 1710.3373    98.659912
 1709.3406    98.937325
 1708.3439    99.168396
 1707.3472    99.327553
 1706.3505    99.484772
 1705.3538    99.426941
 1704.3571    99.304848
 1703.3604    99.227814
 1702.3636    99.071625
 1701.3669    98.815109
 1700.3704    98.566032
 1699.3737    98.353287
 1698.3770    98.214859
 1697.3801    98.203262
 1696.3834    98.200562
 1695.3867    98.257507
 1694.3900    98.333000
 1693.3933    98.506393
 1692.3966    98.794220
 1691.3999    99.060364
 1690.4032    99.283600
 1689.4066    99.454544
 1688.4099    99.665276
 1687.4132    99.785919
 1686.4165    99.726280
 1685.4198    99.608704
 1684.4231    99.477180
 1683.4264    99.357399
 1682.4297    99.175377
 1681.4330    98.928329
 1680.4363    98.784218
 1679.4396    98.663445
 1678.4429    98.564484
 1677.4462    98.636002
 1676.4495    98.776779
 1675.4528    98.869263
 1674.4561    99.094772
 1673.4594    99.372131
 1672.4625    99.462654
 1671.4658    99.594437
 1670.4692    99.726006
 1669.4725    99.785774
 1668.4758    99.796585
 1667.4791    99.680450
 1666.4824    99.530434
 1665.4857    99.400421
 1664.4891    99.268990
 1663.4924    99.117264
 1662.4957    98.941086
 1661.4990    98.847992
 1660.5023    98.823929
 1659.5056    98.729568
 1658.5089    98.740463
 1657.5122    98.948090
 1656.5155    99.148537
 1655.5188    99.304581
 1654.5221    99.501617
 1653.5254    99.648254
 1652.5287    99.794884
 1651.5320    99.856133
 1650.5353    99.877625
 1649.5386    99.918877
 1648.5417    99.791862
 1647.5450    99.612968
 1646.5483    99.438789
 1645.5516    99.290810
 1644.5549    99.185440
 1643.5582    99.180382
 1642.5615    99.152321
 1641.5649    99.061684
 1640.5682    99.040070
 1639.5717    99.092064
 1638.5750    99.231461
 1637.5782    99.473511
 1636.5815    99.648064
 1635.5848    99.752159
 1634.5881    99.821022
 1633.5914    99.818153
 1632.5947    99.848747
 1631.5980    99.775238
 1630.6013    99.700203
 1629.6046    99.619019
 1628.6079    99.458633
 1627.6112    99.374352
 1626.6145    99.212173
 1625.6178    98.983459
 1624.6211    98.912727
 1623.6243    98.945534
 1622.6276    98.959038
 1621.6309    99.005020
 1620.6342    99.110992
 1619.6375    99.296463
 1618.6407    99.490967
 1617.6440    99.648499
 1616.6473    99.740211
 1615.6506    99.767754
 1614.6541    99.892967
 1613.6573   100.021416
 1612.6606    99.992355
 1611.6641    99.856247
 1610.6674    99.662201
 1609.6707    99.480331
 1608.6740    99.384026
 1607.6772    99.359230
 1606.6805    99.328018
 1605.6838    99.206238
 1604.6871    99.133865
 1603.6904    99.153969
 1602.6937    99.234451
 1601.6970    99.432480
 1600.7003    99.562408
 1599.7035    99.678680
 1598.7068    99.856148
 1597.7101    99.917419
 1596.7134    99.989296
 1595.7167   100.013771
 1594.7200    99.981644
 1593.7233    99.947990
 1592.7266    99.808746
 1591.7299    99.557869
 1590.7332    99.365311
 1589.7366    99.299583
 1588.7399    99.124413
 1587.7432    98.952370
 1586.7465    98.900681
 1585.7498    98.952431
 1584.7531    99.133461
 1583.7563    99.266090
 1582.7596    99.461510
 1581.7631    99.616043
 1580.7664    99.768982
 1579.7697    99.911270
 1578.7729   100.055099
 1577.7762   100.209778
 1576.7795   100.064247
 1575.7827    99.995415
 1574.7860    99.944908
 1573.7893    99.816315
 1572.7926    99.748863
 1571.7959    99.531746
 1570.7992    99.386520
 1569.8025    99.390732
 1568.8058    99.313049
 1567.8091    99.286072
 1566.8124    99.357948
 1565.8158    99.436012
 1564.8191    99.527916
 1563.8224    99.727844
 1562.8257    99.903564
 1561.8290    99.983170
 1560.8323   100.000000
 1559.8356    99.975555
 1558.8389   100.000000
 1557.8422    99.954140
 1556.8455    99.801102
 1555.8488    99.658836
 1554.8521    99.493744
 1553.8553    99.266029
 1552.8588    99.124054
 1551.8621    99.058525
 1550.8652    98.970802
 1549.8685    99.064560
 1548.8718    99.196571
 1547.8751    99.184601
 1546.8784    99.331696
 1545.8817    99.573395
 1544.8850    99.715660
 1543.8883    99.909798
 1542.8916   100.074898
 1541.8949   100.114670
 1540.8983   100.162132
 1539.9016   100.162155
 1538.9049   100.108650
 1537.9082    99.970940
 1536.9115    99.821091
 1535.9148    99.784348
 1534.9181    99.759819
 1533.9214    99.784180
 1532.9247    99.796364
 1531.9280    99.834724
 1530.9313    99.909737
 1529.9346    99.938805
 1528.9379   100.013756
 1527.9412   100.062622
 1526.9445   100.113045
 1525.9476   100.189629
 1524.9509   100.189697
 1523.9542   100.053490
 1522.9576    99.926674
 1521.9609    99.836426
 1520.9642    99.710869
 1519.9675    99.586784
 1518.9708    99.412682
 1517.9741    99.301224
 1516.9775    99.224701
 1515.9808    99.188126
 1514.9841    99.235603
 1513.9874    99.217438
 1512.9907    99.281631
 1511.9940    99.414688
 1510.9973    99.517433
 1510.0006    99.627518
 1509.0039    99.801407
 1508.0072    99.886971
 1507.0105    99.801552
 1506.0138    99.780075
 1505.0171    99.865402
 1504.0204    99.837807
 1503.0237    99.698608
 1502.0269    99.565659
 1501.0302    99.419060
 1500.0334    99.312424
 1499.0367    99.273239
 1498.0400    99.357063
 1497.0433    99.480682
 1496.0466    99.505096
 1495.0499    99.509628
 1494.0532    99.636215
 1493.0566    99.772171
 1492.0601    99.818115
 1491.0634    99.793648
 1490.0667    99.770615
 1489.0699    99.744698
 1488.0732    99.672981
 1487.0765    99.526398
 1486.0798    99.388962
 1485.0831    99.317154
 1484.0864    99.362785
 1483.0897    99.461571
 1482.0930    99.427765
 1481.0963    99.465790
 1480.0996    99.502686
 1479.1029    99.576645
 1478.1062    99.702087
 1477.1094    99.747841
 1476.1127    99.845528
 1475.1160    99.866966
 1474.1193    99.805923
 1473.1226    99.697403
 1472.1259    99.620743
 1471.1292    99.585434
 1470.1324    99.435593
 1469.1357    99.274872
 1468.1390    99.149429
 1467.1425    99.100639
 1466.1458    99.065666
 1465.1490    99.149246
 1464.1525    99.256287
 1463.1558    99.401833
 1462.1591    99.631248
 1461.1624    99.680420
 1460.1656    99.737083
 1459.1689    99.955635
 1458.1722   100.022949
 1457.1755    99.951073
 1456.1788    99.952591
 1455.1821    99.926552
 1454.1854    99.929565
 1453.1886    99.805611
 1452.1919    99.608566
 1451.1952    99.594887
 1450.1985    99.645233
 1449.2018    99.645172
 1448.2051    99.646667
 1447.2084    99.675728
 1446.2117    99.709572
 1445.2150    99.753975
 1444.2183    99.698837
 1443.2216    99.600960
 1442.2250    99.593224
 1441.2283    99.521271
 1440.2316    99.400345
 1439.2349    99.296196
 1438.2382    99.140121
 1437.2415    98.915504
 1436.2448    98.843361
 1435.2480    98.856979
 1434.2515    98.870712
 1433.2548    98.906227
 1432.2581    98.943130
 1431.2614    99.039139
 1430.2646    99.210068
 1429.2678    99.365952
 1428.2711    99.377274
 1427.2744    99.458702
 1426.2777    99.541298
 1425.2810    99.565781
 1424.2843    99.495453
 1423.2876    99.437004
 1422.2909    99.345161
 1421.2942    99.187027
 1420.2975    99.165688
 1419.3008    99.077019
 1418.3041    99.072235
 1417.3075    99.128532
 1416.3108    99.148499
 1415.3141    99.060364
 1419.0000    99.046936
 1418.0001    99.066605
 1417.0000    99.014648
 1416.0000    98.937538
 1415.0001    98.738510
 1414.0000    98.539391
 1413.0001    98.367569
 1412.0000    98.160126
 1411.0000    98.054390
 1410.0001    97.950874
 1409.0000    97.772842
 1408.0001    97.693886
 1407.0001    97.661331
 1406.0000    97.674171
 1405.0001    97.607147
 1404.0000    97.427162
 1403.0001    97.281181
 1402.0001    97.274437
 1401.0000    97.085045
 1400.0001    96.771782
 1399.0000    96.627068
 1398.0001    96.357498
 1397.0001    96.135216
 1396.0000    95.872330
 1395.0001    95.540070
 1394.0000    95.383301
 1393.0000    95.053497
 1392.0001    94.771561
 1391.0000    94.708115
 1390.0001    94.452858
 1389.0000    94.117111
 1388.0000    93.914612
 1387.0001    93.532845
 1386.0000    93.047424
 1385.0001    92.849281
 1384.0001    92.769112
 1383.0000    92.597130
 1382.0001    92.266388
 1381.0000    92.162102
 1380.0001    92.509285
 1379.0001    92.803322
 1378.0000    93.279251
 1377.0001    94.137161
 1376.0000    94.816833
 1375.0001    95.381790
 1374.0001    96.076965
 1373.0000    96.735390
 1372.0001    97.140068
 1371.0000    97.585983
 1370.0001    98.180954
 1369.0001    98.480743
 1368.0000    98.601677
 1367.0001    98.711891
 1366.0000    98.797630
 1361.3147    98.867149
 1360.3174    99.043137
 1359.3201    99.229408
 1358.3228    99.336563
 1357.3254    99.393173
 1356.3280    99.251884
 1355.3307    99.264664
 1354.3335    99.332397
 1353.3362    99.138802
 1352.3389    98.918976
 1351.3416    98.728081
 1350.3444    98.644348
 1349.3470    98.542450
 1348.3497    98.266685
 1347.3524    98.164284
 1346.3551    98.307755
 1345.3579    98.619720
 1344.3606    98.822777
 1343.3632    98.793175
 1342.3658    98.825600
 1341.3685    98.958633
 1340.3712    99.125183
 1339.3739    99.145195
 1338.3766    99.119644
 1337.3794    99.046875
 1336.3822    99.109268
 1335.3849    99.246178
 1334.3876    99.270561
 1333.3903    99.463058
 1332.3929    99.689270
 1331.3956    99.788765
 1330.3982    99.921944
 1329.4009    99.966347
 1328.4037    99.911308
 1327.4064    99.863861
 1326.4091    99.692520
 1325.4117    99.426720
 1324.4146    99.121262
 1323.4172    98.924530
 1322.4199    98.641891
 1321.4226    98.381104
 1320.4254    98.351608
 1319.4281    98.438171
 1318.4308    98.456924
 1317.4333    98.489159
 1316.4360    98.617355
 1315.4387    98.746468
 1314.4414    98.838173
 1313.4441    98.804504
 1312.4468    98.846397
 1311.4497    98.864868
 1310.4524    98.923775
 1309.4551    99.012779
 1308.4578    99.031319
 1307.4604    99.154099
 1306.4631    99.269684
 1305.4658    99.289803
 1304.4684    99.345497
 1303.4712    99.493813
 1302.4739    99.536400
 1301.4766    99.380684
 1300.4792    99.298294
 1299.4819    99.258125
 1298.4847    99.178093
 1297.4874    99.120644
 1296.4901    99.020897
 1295.4929    99.035370
 1294.4956    99.025337
 1293.4983    99.046829
 1292.5010    99.140488
 1291.5035    99.326950
 1290.5062    99.493378
 1289.5089    99.397423
 1288.5116    99.312210
 1287.5143    99.285759
 1286.5171    99.158981
 1285.5199    99.036995
 1284.5226    98.971924
 1283.5253    98.846375
 1282.5280    98.713593
 1281.5306    98.687752
 1280.5333    98.648483
 1279.5360    98.564087
 1278.5387    98.560173
 1277.5414    98.535645
 1276.5441    98.471054
 1275.5468    98.423073
 1274.5494    98.320938
 1273.5521    98.204369
 1272.5549    98.235474
 1271.5576    98.293686
 1270.5603    98.321129
 1269.5631    98.380684
 1268.5658    98.488785
 1267.5685    98.697502
 1266.5712    98.785561
 1265.5737    98.814056
 1264.5764    98.806305
 1263.5791    98.743484
 1262.5818    98.743271
 1261.5846    98.699432
 1260.5873    98.728081
 1259.5901    98.696968
 1258.5928    98.711105
 1257.5955    98.895790
 1256.5981    99.066849
 1255.6008    99.191376
 1254.6035    99.371857
 1253.6061    99.573448
 1252.6089    99.735428
 1251.6116    99.743103
 1250.6143    99.626976
 1249.6169    99.558014
 1248.6196    99.537979
 1247.6223    99.464462
 1246.6251    99.348442
 1245.6278    99.302536
 1244.6306    99.294395
 1243.6333    99.240662
 1242.6360    99.078384
 1241.6387    98.864525
 1240.6412    98.602722
 1239.6439    98.334023
 1238.6466    98.040657
 1237.6493    97.868042
 1236.6520    97.814377
 1235.6548    97.809158
 1234.6575    97.894814
 1233.6603    98.185989
 1232.6630    98.592133
 1231.6656    98.926491
 1230.6683    99.142113
 1229.6710    99.336449
 1228.6737    99.519936
 1227.6764    99.504585
 1226.6791    99.312019
 1225.6818    99.083046
 1224.6844    99.011322
 1223.6871    99.039108
 1222.6898    99.156456
 1221.6925    99.333405
 1220.6953    99.550392
 1219.6980    99.769135
 1218.7008    99.932777
 1217.7035   100.013756
 1216.7062    99.954124
 1215.7089    99.857651
 1214.7114    99.733681
 1213.7141    99.687866
 1212.7168    99.617737
 1211.7195    99.506363
 1210.7223    99.552116
 1209.7250    99.735542
 1208.7277    99.894493
 1207.7305    99.961754
 1206.7332    99.883705
 1205.7358    99.625298
 1204.7385    99.365250
 1203.7412    99.058884
 1202.7439    98.790718
 1201.7466    98.512436
 1200.7493    98.328423
 1199.7520    98.497734
 1198.7546    98.842003
 1197.7573    99.162415
 1196.7600    99.371628
 1195.7627    99.518234
 1194.7655    99.622292
 1193.7683    99.628532
 1192.7710    99.463531
 1191.7737    99.258705
 1190.7764    99.069603
 1189.7791    98.940773
 1188.7816    98.920586
 1187.7843    98.919586
 1186.7870    98.972870
 1185.7898    99.008163
 1184.7925    99.033875
 1183.7952    99.040871
 1182.7979    98.910362
 1181.8007    98.754303
 1180.8033    98.634247
 1179.8060    98.633026
 1178.8087    98.854530
 1177.8114    99.040283
 1176.8142    99.336601
 1175.8168    99.593376
 1174.8195    99.715736
 1173.8221    99.665497
 1172.8248    99.537132
 1171.8275    99.463150
 1170.8302    99.140289
 1169.8329    98.723473
 1168.8358    98.543060
 1167.8385    98.565483
 1166.8412    98.562584
 1165.8439    98.528175
 1164.8466    98.441780
 1163.8492    98.394890
 1162.8518    98.277336
 1161.8545    98.195457
 1160.8572    98.202713
 1159.8600    98.187767
 1158.8627    98.249184
 1157.8654    98.216278
 1156.8680    98.311897
 1155.8708    98.650719
 1154.8735    98.771103
 1153.8762    98.589699
 1152.8789    98.353592
 1151.8817    98.338966
 1150.8844    98.285431
 1149.8870    98.054085
 1148.8896    98.037476
 1147.8923    98.111565
 1146.8950    98.208687
 1145.8977    98.308739
 1144.9004    98.285088
 1143.9031    98.240784
 1142.9060    98.194496
 1141.9087    98.232040
 1140.9114    98.367531
 1139.9141    98.524078
 1138.9167    98.784386
 1137.9193    99.119102
 1136.9220    99.391167
 1135.9247    99.602127
 1134.9275    99.628311
 1133.9302    99.471245
 1132.9329    99.289024
 1131.9355    99.036591
 1130.9382    98.919258
 1129.9410    99.081139
 1128.9437    99.205330
 1127.9464    99.353699
 1126.9491    99.457817
 1125.9519    99.462227
 1124.9545    99.325813
 1123.9572    99.089684
 1122.9598    98.875305
 1121.9625    98.624588
 1120.9652    98.735237
 1119.9679    99.232697
 1118.9706    99.710922
 1117.9734    99.978592
 1116.9762    99.945038
 1115.9789    99.763405
 1114.9816    99.481667
 1113.9843    98.955452
 1112.9869    98.372528
 1111.9895    98.060860
 1110.9922    98.077042
 1109.9949    98.343468
 1108.9977    98.564507
 1108.0004    98.693520
 1107.0031    98.757378
 1106.0057    98.628983
 1105.0084    98.459747
 1104.0112    98.246819
 1103.0139    98.140907
 1102.0166    98.424355
 1101.0194    98.870720
 1100.0221    99.169716
 1099.0247    99.220337
 1098.0273    98.898376
 1097.0300    98.450974
 1096.0327    97.970390
 1095.0354    97.569214
 1094.0381    97.455460
 1093.0408    97.754868
 1092.0436    98.218521
 1091.0464    98.597816
 1090.0491    98.868050
 1089.0518    98.805717
 1088.0544    98.438095
 1087.0571    97.991318
 1086.0597    97.668411
 1085.0624    97.732727
 1084.0652    98.244461
 1083.0679    98.787758
 1082.0706    99.231453
 1081.0732    99.396492
 1080.0759    99.031540
 1079.0786    98.304153
 1078.0814    97.518196
 1077.0841    97.002068
 1076.0869    96.818161
 1075.0896    97.153076
 1074.0923    97.851456
 1073.0948    98.415222
 1072.0975    98.701401
 1071.1002    98.523323
 1070.1029    98.050903
 1069.1056    97.582085
 1068.1083    97.359604
 1067.1111    97.656235
 1066.1138    98.289040
 1065.1166    98.848206
 1064.1193    99.149368
 1063.1219    99.033325
 1062.1246    98.521484
 1061.1273    97.880760
 1060.1299    97.429977
 1059.1327    97.307289
 1058.1354    97.518753
 1057.1381    97.926003
 1056.1407    98.163483
 1055.1434    98.020882
 1054.1461    97.581642
 1053.1489    97.273865
 1052.1516    97.365685
 1051.1543    97.790665
 1050.1571    98.434540
 1049.1598    99.055519
 1048.1625    99.376144
 1047.1650    99.281006
 1046.1677    98.818222
 1045.1704    98.468544
 1044.1731    98.434082
 1043.1758    98.647346
 1042.1786    99.142227
 1041.1813    99.447685
 1040.1841    99.117752
 1039.1868    98.499519
 1038.1895    97.782570
 1037.1921    97.344688
 1036.1948    97.466515
 1035.1975    97.932426
 1034.2001    98.616463
 1033.2029    99.024254
 1032.2056    98.925407
 1031.2083    98.491608
 1030.2109    98.072044
 1029.2136    98.054733
 1028.2163    98.374840
 1027.2191    98.699547
 1026.2218    98.535065
 1025.2246    97.639412
 1024.2273    96.414757
 1023.2300    95.256081
 1022.2325    94.599014
 1021.2352    94.821846
 1020.2379    95.729019
 1019.2406    96.758484
 1018.2433    97.224602
 1017.2460    96.660149
 1016.2488    95.243187
 1015.2514    93.759842
 1014.2542    93.174873
 1013.2568    93.906319
 1012.2596    95.346741
 1011.2623    96.160965
 1010.2651    94.996178
 1009.2676    91.886032
 1008.2704    87.911873
 1007.2731    84.977821
 1006.2759    84.986160
 1005.2784    87.434837
 1004.2812    90.044937
 1003.2839    90.985069
 1002.2866    89.693459
 1001.2892    87.734695
 1000.2919    87.054955
  999.2946    87.464432
  998.2974    85.801895
  997.3000    76.500519
  996.3027    58.069199
  995.3055    35.835129
  994.3082    17.181055
  993.3110     6.233377
  992.3135     1.983059
  991.3163     0.917417
  990.3190     0.694020
  989.3218     0.606644
  988.3243     0.548972
  987.3271     0.520212
  986.3297     0.507940
  985.3325     0.493959
  984.3351     0.480225
  983.3379     0.449837
  982.3406     0.434523
  981.3433     0.435886
  980.3459     0.405255
  979.3486     0.407058
  978.3514     0.408619
  977.3541     0.410425
##END=
