wavelength_nm,Trans_pct
350,0.18
352,0.2
354,0.22
356,0.25
358,0.35
360,0.49
362,0.64
364,0.94
366,1.18
368,1.25
370,1.23
372,1.16
374,0.94
376,0.88
378,0.81
380,0.74
382,0.74
384,1.2
386,1.65
388,1.77
390,1.85
392,1.84
394,1.34
396,0.79
398,0.95
400,1.26
402,1.33
404,1.4
406,1.75
408,2.02
410,1.7
412,1.57
414,1.45
416,1.01
418,0.41
420,0.43
422,0.57
424,0.67
426,0.75
428,0.81
430,0.82
432,0.83
434,0.88
436,0.97
438,1.13
440,1.37
442,1.59
444,1.67
446,1.66
448,1.54
450,1.34
452,1.24
454,1.41
456,1.71
458,1.93
460,2.01
462,1.94
464,1.72
466,1.5
468,1.47
470,1.64
472,1.9
474,2.13
476,2.25
478,2.23
480,2.09
482,1.89
484,1.72
486,1.63
488,1.62
490,1.66
492,1.76
494,1.91
496,2.14
498,2.48
500,2.98
502,3.56
504,4.01
506,4.14
508,3.9
510,3.34
512,2.58
514,1.85
516,1.34
518,1.06
520,0.95
522,0.96
524,1.07
526,1.26
528,1.47
530,1.63
532,1.69
534,1.65
536,1.52
538,1.37
540,1.27
542,1.3
544,1.53
546,2.09
548,3.1
550,4.45
552,5.61
554,6.25
556,6.32
558,5.79
560,4.92
562,4.27
564,4.25
566,4.91
568,6.05
570,7.18
572,7.83
574,7.82
576,7.16
578,6.02
580,4.88
582,4.21
584,4.18
586,4.83
588,6.03
590,7.23
592,7.8
594,7.57
596,6.58
598,4.98
600,3.31
602,2.12
604,1.47
606,1.13
608,0.96
610,0.89
612,0.88
614,0.93
616,1.04
618,1.22
620,1.48
622,1.84
624,2.26
626,2.67
628,2.99
630,3.15
632,3.12
634,2.92
636,2.61
638,2.29
640,2
642,1.76
644,1.58
646,1.44
648,1.34
650,1.26
652,1.19
654,1.15
656,1.11
658,1.09
660,1.08
662,1.08
664,1.09
666,1.12
668,1.17
670,1.24
672,1.34
674,1.47
676,1.64
678,1.86
680,2.11
682,2.37
684,2.58
686,2.68
688,2.62
690,2.4
692,2.04
694,1.63
696,1.24
698,0.91
700,0.67
702,0.49
704,0.37
706,0.29
708,0.23
710,0.18
712,0.15
714,0.13
716,0.11
718,0.1
720,0.09
722,0.08
724,0.07
726,0.06
728,0.06
730,0.06
732,0.06
734,0.06
736,0.06
738,0.06
740,0.06
742,0.06
744,0.06
746,0.06
748,0.06
750,0.07
752,0.07
754,0.07
756,0.07
758,0.08
760,0.08
762,0.08
764,0.08
766,0.08
768,0.08
770,0.08
772,0.08
774,0.08
776,0.08
778,0.08
780,0.08
782,0.08
784,0.08
786,0.08
788,0.08
790,0.08
792,0.08
794,0.08
796,0.09
798,0.09
800,0.09
802,0.09
804,0.1
806,0.11
808,0.12
810,0.12
812,0.14
814,0.15
816,0.16
818,0.18
820,0.2
822,0.22
824,0.24
826,0.27
828,0.29
830,0.32
832,0.34
834,0.36
836,0.39
838,0.4
840,0.42
842,0.43
844,0.45
846,0.46
848,0.47
850,0.48
852,0.5
854,0.52
856,0.55
858,0.58
860,0.63
862,0.68
864,0.76
866,0.86
868,0.99
870,1.16
872,1.39
874,1.71
876,2.14
878,2.73
880,3.52
882,4.51
884,5.62
886,6.27
888,6.69
890,6.75
892,6.43
894,5.74
896,5.21
898,4.56
900,3.96
902,3.4
904,2.89
906,2.51
908,2.22
910,2
912,1.83
914,1.73
916,1.67
918,1.66
920,1.71
922,1.78
924,1.87
926,2.01
928,2.17
930,2.31
932,2.5
934,2.79
936,3.11
938,3.52
940,4.06
942,4.72
944,5.53
946,6.54
948,7.8
950,9.39
952,11.42
954,13.98
956,17.19
958,21.14
960,25.9
962,31.46
964,37.74
966,44.56
968,51.58
970,58.42
972,64.66
974,69.94
976,74.01
978,76.8
980,78.4
982,79.03
984,78.99
986,78.62
988,78.17
990,77.87
992,77.86
994,78.21
996,78.9
998,79.93
1000,81.28
1002,82.89
1004,84.68
1006,86.57
1008,88.5
1010,90.34
1012,91.96
1014,93.31
1016,94.34
1018,95
1020,95.33
1022,95.41
1024,95.19
1026,94.75
1028,94.17
1030,93.49
1032,92.72
1034,91.97
1036,91.29
1038,90.72
1040,90.25
1042,89.93
1044,89.79
1046,89.81
1048,89.96
1050,90.25
1052,90.67
1054,91.17
1056,91.71
1058,92.29
1060,92.87
1062,93.39
1064,93.85
1066,94.21
1068,94.48
1070,94.63
1072,94.68
1074,94.61
1076,94.39
1078,94.02
1080,93.56
1082,92.99
1084,92.37
1086,91.74
1088,91.11
1090,90.49
1092,89.89
1094,89.32
1096,88.81
1098,88.37
1100,88.01
1102,87.73
1104,87.57
1106,87.51
1108,87.55
1110,87.68
1112,87.91
1114,88.23
1116,88.65
1118,89.15
1120,89.69
1122,90.23
1124,90.77
1126,91.32
1128,91.89
1130,92.41
1132,92.9
1134,93.34
1136,93.67
1138,93.9
1140,94.04
1142,94.09
1144,93.99
1146,93.81
1148,93.51
1150,93.14
1152,92.69
1154,92.16
1156,91.55
1158,90.9
1160,90.16
1162,89.43
1164,88.73
1166,88.02
1168,87.3
1170,86.64
1172,86.01
1174,85.4
1176,84.87
1178,84.4
1180,84.03
1182,83.72
1184,83.52
1186,83.37
1188,83.29
1190,83.3
1192,83.35
1194,83.48
1196,83.67
1198,83.96
1200,84.27
1202,84.65
1204,85.06
1206,85.55
1208,86.02
1210,86.52
1212,87.05
1214,87.62
1216,88.18
1218,88.74
1220,89.29
1222,89.83
1224,90.31
1226,90.75
1228,91.17
1230,91.51
1232,91.85
1234,92.11
1236,92.33
1238,92.48
1240,92.64
1242,92.68
1244,92.67
1246,92.59
1248,92.5
1250,92.33
1252,92.14
1254,91.95
1256,91.75
1258,91.52
1260,91.26
1262,91.03
1264,90.77
1266,90.52
1268,90.28
1270,90.05
1272,89.82
1274,89.63
1276,89.43
1278,89.26
1280,89.12
1282,89.03
1284,88.96
1286,88.93
1288,88.95
1290,89
1292,89.05
1294,89.14
1296,89.23
1298,89.32
1300,89.45
1302,89.65
1304,89.89
1306,90.14
1308,90.39
1310,90.63
1312,90.84
1314,91.03
1316,91.27
1318,91.52
1320,91.77
1322,92.02
1324,92.26
1326,92.48
1328,92.65
1330,92.79
1332,92.93
1334,93.05
1336,93.14
1338,93.22
1340,93.28
1342,93.28
1344,93.24
1346,93.17
1348,93.09
1350,93.01
1352,92.92
1354,92.77
1356,92.62
1358,92.42
1360,92.16
1362,91.89
1364,91.64
1366,91.38
1368,91.12
1370,90.87
1372,90.59
1374,90.27
1376,89.96
1378,89.66
1380,89.36
1382,89.08
1384,88.83
1386,88.58
1388,88.32
1390,88.09
1392,87.88
1394,87.67
1396,87.45
1398,87.26
1400,87.09
1402,86.93
1404,86.78
1406,86.69
1408,86.6
1410,86.51
1412,86.47
1414,86.45
1416,86.42
1418,86.43
1420,86.44
1422,86.44
1424,86.46
1426,86.5
1428,86.55
1430,86.59
1432,86.65
1434,86.75
1436,86.86
1438,86.98
1440,87.13
1442,87.29
1444,87.42
1446,87.57
1448,87.74
1450,87.91
1452,88.11
1454,88.33
1456,88.54
1458,88.75
1460,88.97
1462,89.18
1464,89.38
1466,89.58
1468,89.79
1470,90.01
1472,90.21
1474,90.42
1476,90.63
1478,90.84
1480,91.04
1482,91.25
1484,91.44
1486,91.64
1488,91.84
1490,92.04
1492,92.22
1494,92.38
1496,92.54
1498,92.72
1500,92.91
1502,93.09
1504,93.27
1506,93.43
1508,93.56
1510,93.69
1512,93.83
1514,93.96
1516,94.11
1518,94.24
1520,94.35
1522,94.44
1524,94.55
1526,94.66
1528,94.77
1530,94.88
1532,94.96
1534,95.05
1536,95.14
1538,95.2
1540,95.26
1542,95.32
1544,95.37
1546,95.4
1548,95.46
1550,95.52
1552,95.58
1554,95.63
1556,95.7
1558,95.72
1560,95.75
1562,95.79
1564,95.8
1566,95.81
1568,95.85
1570,95.88
1572,95.9
1574,95.92
1576,95.93
1578,95.94
1580,95.93
1582,95.9
1584,95.87
1586,95.85
1588,95.84
1590,95.81
1592,95.82
1594,95.8
1596,95.8
1598,95.77
1600,95.73
1602,95.69
1604,95.67
1606,95.63
1608,95.57
1610,95.52
1612,95.46
1614,95.38
1616,95.28
1618,95.19
1620,95.09
1622,95
1624,94.92
1626,94.85
1628,94.79
1630,94.72
1632,94.63
1634,94.55
1636,94.45
1638,94.31
1640,94.2
1642,94.1
1644,93.98
1646,93.88
1648,93.82
1650,93.7
1652,93.6
1654,93.51
1656,93.42
1658,93.3
1660,93.22
1662,93.09
1664,92.94
1666,92.85
1668,92.74
1670,92.62
1672,92.52
1674,92.45
1676,92.34
1678,92.26
1680,92.18
1682,92.11
1684,92.04
1686,91.95
1688,91.87
1690,91.78
1692,91.68
1694,91.56
1696,91.48
1698,91.37
1700,91.29
1702,91.19
1704,91.13
1706,91.04
1708,90.96
1710,90.86
1712,90.78
1714,90.72
1716,90.66
1718,90.6
1720,90.51
1722,90.43
1724,90.34
1726,90.26
1728,90.19
1730,90.14
1732,90.1
1734,90.06
1736,90.01
1738,89.96
1740,89.95
1742,89.94
1744,89.9
1746,89.87
1748,89.83
1750,89.79
1752,89.75
1754,89.73
1756,89.7
1758,89.7
1760,89.69
1762,89.67
1764,89.66
1766,89.67
1768,89.64
1770,89.62
1772,89.64
1774,89.67
1776,89.69
1778,89.72
1780,89.75
1782,89.77
1784,89.81
1786,89.83
1788,89.87
1790,89.92
1792,89.95
1794,89.98
1796,90.04
1798,90.11
1800,90.17
1802,90.23
1804,90.27
1806,90.3
1808,90.31
1810,90.35
1812,90.41
1814,90.48
1816,90.54
1818,90.62
1820,90.69
1822,90.73
1824,90.78
1826,90.82
1828,90.87
1830,90.91
1832,90.97
1834,91.06
1836,91.16
1838,91.27
1840,91.38
1842,91.45
1844,91.52
1846,91.59
1848,91.67
1850,91.74
1852,91.82
1854,91.89
1856,91.96
1858,92.03
1860,92.09
1862,92.17
1864,92.26
1866,92.36
1868,92.46
1870,92.55
1872,92.61
1874,92.67
1876,92.74
1878,92.79
1880,92.87
1882,92.96
1884,93.04
1886,93.12
1888,93.18
1890,93.25
1892,93.32
1894,93.37
1896,93.42
1898,93.48
1900,93.53
1902,93.59
1904,93.67
1906,93.76
1908,93.85
1910,93.93
1912,93.98
1914,94.04
1916,94.13
1918,94.2
1920,94.3
1922,94.43
1924,94.53
1926,94.59
1928,94.64
1930,94.69
1932,94.74
1934,94.81
1936,94.89
1938,94.97
1940,95.04
1942,95.11
1944,95.18
1946,95.24
1948,95.33
1950,95.43
1952,95.51
1954,95.58
1956,95.64
1958,95.66
1960,95.69
1962,95.74
1964,95.79
1966,95.85
1968,95.94
1970,96.01
1972,96.05
1974,96.12
1976,96.18
1978,96.25
1980,96.31
1982,96.37
1984,96.43
1986,96.47
1988,96.49
1990,96.53
1992,96.59
1994,96.65
1996,96.7
1998,96.76
2000,96.82
2002,96.85
2004,96.87
2006,96.92
2008,96.95
2010,96.97
2012,97.03
2014,97.1
2016,97.12
2018,97.15
2020,97.2
2022,97.2
2024,97.21
2026,97.24
2028,97.29
2030,97.32
2032,97.36
2034,97.39
2036,97.43
2038,97.44
2040,97.48
2042,97.52
2044,97.54
2046,97.58
2048,97.63
2050,97.66
2052,97.69
2054,97.7
2056,97.69
2058,97.69
2060,97.72
2062,97.74
2064,97.78
2066,97.78
2068,97.8
2070,97.79
2072,97.8
2074,97.8
2076,97.86
2078,97.87
2080,97.85
2082,97.83
2084,97.87
2086,97.86
2088,97.88
2090,97.95
2092,97.99
2094,98.01
2096,98.04
2098,98.05
2100,98.04
2102,98.12
2104,98.12
2106,98.12
2108,98.16
2110,98.23
2112,98.17
2114,98.14
2116,98.1
2118,98.05
2120,97.97
2122,97.96
2124,97.94
2126,97.95
2128,97.98
2130,98.02
2132,98
2134,98.04
2136,98.05
2138,98.05
2140,98.02
2142,98.05
2144,98.02
2146,98.03
2148,97.99
2150,98
2152,98
2154,98.05
2156,98.04
2158,98.08
2160,98.09
2162,98.09
2164,98.03
2166,98
2168,97.93
2170,97.9
2172,97.92
2174,97.92
2176,97.96
2178,97.96
2180,97.93
2182,97.9
2184,97.91
2186,97.86
2188,97.86
2190,97.88
2192,97.88
2194,97.84
2196,97.85
2198,97.83
2200,97.73
2202,97.67
2204,97.69
2206,97.61
2208,97.63
2210,97.71
2212,97.72
2214,97.67
2216,97.71
2218,97.63
2220,97.54
2222,97.54
2224,97.58
2226,97.55
2228,97.58
2230,97.62
2232,97.6
2234,97.57
2236,97.53
2238,97.54
2240,97.52
2242,97.56
2244,97.59
2246,97.67
2248,97.71
2250,97.74
2252,97.69
2254,97.67
2256,97.62
2258,97.59
2260,97.57
2262,97.61
2264,97.55
2266,97.58
2268,97.57
2270,97.62
2272,97.64
2274,97.74
2276,97.72
2278,97.7
2280,97.62
2282,97.59
2284,97.55
2286,97.55
2288,97.58
2290,97.59
2292,97.53
2294,97.49
2296,97.42
2298,97.4
2300,97.44
2302,97.51
2304,97.58
2306,97.73
2308,97.72
2310,97.68
2312,97.64
2314,97.58
2316,97.55
2318,97.63
2320,97.66
2322,97.75
2324,97.84
2326,97.85
2328,97.77
2330,97.73
2332,97.65
2334,97.58
2336,97.57
2338,97.61
2340,97.6
2342,97.6
2344,97.6
2346,97.63
2348,97.69
2350,97.76
2352,97.79
2354,97.86
2356,97.85
2358,97.81
2360,97.79
2362,97.8
2364,97.75
2366,97.69
2368,97.66
2370,97.73
2372,97.79
2374,97.79
2376,97.85
2378,97.86
2380,97.79
2382,97.72
2384,97.66
2386,97.61
2388,97.57
2390,97.56
2392,97.53
2394,97.51
2396,97.49
2398,97.52
2400,97.5
2402,97.55
2404,97.61
2406,97.66
2408,97.71
2410,97.78
2412,97.78
2414,97.79
2416,97.74
2418,97.7
2420,97.67
2422,97.64
2424,97.61
2426,97.61
2428,97.55
2430,97.48
2432,97.4
2434,97.32
2436,97.3
2438,97.31
2440,97.28
2442,97.29
2444,97.33
2446,97.31
2448,97.34
2450,97.49
2452,97.58
2454,97.6
2456,97.6
2458,97.58
2460,97.48
2462,97.44
2464,97.46
2466,97.48
2468,97.52
2470,97.54
2472,97.51
2474,97.52
2476,97.56
2478,97.5
2480,97.42
2482,97.39
2484,97.26
2486,97.14
2488,97.16
2490,97.18
2492,97.09
2494,97.07
2496,96.99
2498,96.81
2500,96.77
2503,99.92
2507,99.95
2510,99.92
2514,99.89
2517,99.95
2520,99.95
2524,99.92
2527,99.92
2531,99.87
2534,99.95
2537,99.95
2541,99.89
2544,99.91
2548,99.85
2551,99.88
2554,100.01
2558,99.89
2561,99.7
2565,100.06
2568,99.86
2571,99.97
2575,99.92
2578,99.97
2582,99.77
2585,99.95
2588,99.92
2592,99.85
2595,99.68
2599,100.04
2602,99.63
2605,99.79
2609,99.86
2612,99.75
2616,99.59
2619,99.91
2622,99.8
2626,99.38
2629,99.51
2633,99.68
2636,99.46
2639,99.22
2643,99.16
2646,99.09
2650,99.03
2653,98.9
2656,98.9
2660,98.7
2663,98.72
2667,98.66
2670,98.42
2673,98.34
2677,97.69
2680,97.88
2684,97.22
2687,96.98
2690,96.52
2694,95.82
2697,95.4
2701,94.2
2704,93.15
2707,91.76
2711,90.41
2714,88.67
2718,87
2721,85.51
2724,83.93
2728,82.46
2731,81.27
2735,80.3
2738,79.45
2741,78.73
2745,77.92
2748,77.33
2752,76.82
2755,76.35
2758,75.72
2762,75.15
2765,74.46
2769,73.87
2772,73.42
2775,73.16
2779,72.98
2782,72.68
2786,72.36
2789,72.03
2792,71.75
2796,71.42
2799,71.04
2803,70.8
2806,70.3
2809,69.99
2813,69.65
2816,69.28
2820,68.95
2823,68.57
2826,68.24
2830,67.83
2833,67.54
2837,67.11
2840,66.82
2843,66.44
2847,66.16
2850,65.86
2854,65.5
2857,65.26
2860,65.02
2864,64.73
2867,64.46
2871,64.23
2874,63.96
2877,63.79
2881,63.5
2884,63.39
2888,63.21
2891,62.96
2894,62.81
2898,62.59
2901,62.48
2905,62.3
2908,62.19
2911,62.16
2915,62.07
2918,61.95
2922,61.82
2925,61.69
2928,61.63
2932,61.62
2935,61.61
2939,61.53
2942,61.62
2945,61.59
2949,61.56
2952,61.61
2956,61.53
2959,61.56
2962,61.65
2966,61.69
2969,61.81
2973,61.89
2976,61.89
2979,61.97
2983,62
2986,62.19
2990,62.24
2993,62.34
2996,62.46
3000,62.57
3003,62.6
3007,62.72
3010,62.87
3013,62.91
3017,63.01
3020,63.14
3024,63.3
3027,63.48
3030,63.52
3034,63.61
3037,63.78
3041,63.87
3044,63.91
3047,64.05
3051,64.17
3054,64.3
3058,64.44
3061,64.59
3064,64.66
3068,64.77
3071,64.89
3075,65.03
3078,65.16
3081,65.36
3085,65.5
3088,65.63
3092,65.78
3095,65.98
3098,66.12
3102,66.28
3105,66.45
3109,66.63
3112,66.81
3115,67
3119,67.17
3122,67.39
3126,67.59
3129,67.8
3132,68.02
3136,68.23
3139,68.43
3143,68.65
3146,68.89
3149,69.11
3153,69.31
3156,69.56
3160,69.79
3163,69.99
3166,70.23
3170,70.49
3173,70.73
3177,71
3180,71.15
3183,71.41
3187,71.67
3190,71.9
3194,72.12
3197,72.36
3200,72.58
3204,72.8
3207,73.11
3211,73.37
3214,73.58
3217,73.81
3221,74.04
3224,74.23
3228,74.5
3231,74.73
3234,74.93
3238,75.2
3241,75.44
3245,75.69
3248,75.92
3251,76.18
3255,76.38
3258,76.62
3262,76.88
3265,77.13
3268,77.34
3272,77.57
3275,77.84
3279,78.08
3282,78.32
3285,78.55
3289,78.8
3292,79.03
3296,79.26
3299,79.49
3302,79.72
3306,79.96
3309,80.19
3313,80.44
3316,80.68
3319,80.91
3323,81.15
3326,81.38
3330,81.59
3333,81.82
3336,82.03
3340,82.27
3343,82.5
3347,82.73
3350,82.94
3353,83.14
3357,83.37
3360,83.58
3364,83.81
3367,84.03
3370,84.23
3374,84.44
3377,84.66
3381,84.87
3384,85.06
3387,85.27
3391,85.5
3394,85.69
3398,85.89
3401,86.1
3404,86.28
3408,86.47
3411,86.64
3415,86.84
3418,87.05
3421,87.26
3425,87.43
3428,87.6
3432,87.77
3435,87.94
3438,88.13
3442,88.32
3445,88.5
3449,88.67
3452,88.8
3455,88.98
3459,89.15
3462,89.29
3466,89.46
3469,89.6
3472,89.72
3476,89.85
3479,89.98
3483,90.13
3486,90.27
3489,90.4
3493,90.53
3496,90.67
3500,90.79
3503,90.9
3506,91.02
3510,91.15
3513,91.28
3517,91.4
3520,91.5
3523,91.61
3527,91.72
3530,91.8
3534,91.89
3537,92.01
3540,92.1
3544,92.18
3547,92.26
3551,92.34
3554,92.44
3557,92.5
3561,92.57
3564,92.64
3568,92.72
3571,92.78
3574,92.85
3578,92.92
3581,92.97
3585,93.01
3588,93.07
3591,93.12
3595,93.17
3598,93.24
3602,93.29
3605,93.32
3608,93.35
3612,93.39
3615,93.44
3619,93.46
3622,93.49
3625,93.52
3629,93.56
3632,93.57
3636,93.58
3639,93.61
3642,93.63
3646,93.64
3649,93.67
3653,93.7
3656,93.72
3659,93.73
3663,93.75
3666,93.74
3670,93.75
3673,93.77
3676,93.78
3680,93.77
3683,93.79
3687,93.8
3690,93.79
3693,93.81
3697,93.8
3700,93.8
3704,93.8
3707,93.79
3710,93.79
3714,93.79
3717,93.78
3721,93.76
3724,93.77
3727,93.78
3731,93.76
3734,93.74
3738,93.73
3741,93.72
3744,93.72
3748,93.73
3751,93.71
3755,93.7
3758,93.7
3761,93.69
3765,93.68
3768,93.66
3772,93.66
3775,93.65
3778,93.64
3782,93.63
3785,93.62
3789,93.62
3792,93.6
3795,93.58
3799,93.56
3802,93.54
3806,93.54
3809,93.53
3812,93.52
3816,93.52
3819,93.51
3823,93.5
3826,93.49
3829,93.48
3833,93.48
3836,93.48
3840,93.46
3843,93.45
3846,93.45
3850,93.44
3853,93.43
3857,93.42
3860,93.41
3863,93.41
3867,93.41
3870,93.41
3874,93.41
3877,93.4
3880,93.39
3884,93.39
3887,93.38
3891,93.39
3894,93.39
3897,93.39
3901,93.38
3904,93.39
3908,93.4
3911,93.39
3914,93.39
3918,93.39
3921,93.41
3925,93.42
3928,93.42
3931,93.42
3935,93.42
3938,93.42
3942,93.44
3945,93.45
3948,93.47
3952,93.47
3955,93.47
3959,93.49
3962,93.52
3965,93.53
3969,93.53
3972,93.53
3976,93.54
3979,93.57
3982,93.58
3986,93.59
3989,93.62
3993,93.65
3996,93.66
3999,93.66
4003,93.68
4006,93.68
4010,93.7
4013,93.71
4016,93.73
4020,93.75
4023,93.76
4027,93.77
4030,93.78
4033,93.79
4037,93.8
4040,93.82
4044,93.84
4047,93.86
4050,93.87
4054,93.89
4057,93.91
4061,93.93
4064,93.95
4067,93.96
4071,93.96
4074,93.99
4078,94.02
4081,94.04
4084,94.06
4088,94.08
4091,94.1
4095,94.12
4098,94.14
4101,94.16
4105,94.17
4108,94.19
4112,94.21
4115,94.24
4118,94.25
4122,94.25
4125,94.27
4129,94.29
4132,94.31
4135,94.32
4139,94.34
4142,94.35
4146,94.38
4149,94.41
4152,94.42
4156,94.44
4159,94.46
4163,94.48
4166,94.51
4169,94.53
4173,94.56
4176,94.58
4180,94.6
4183,94.62
4186,94.66
4190,94.68
4193,94.68
4197,94.72
4200,94.77
4203,94.84
4207,94.92
4210,95
4214,95.1
4217,95.21
4220,95.33
4224,95.45
4227,95.57
4231,95.65
4234,95.73
4237,95.79
4241,95.8
4244,95.77
4248,95.72
4251,95.59
4254,95.44
4258,95.31
4261,95.31
4265,95.41
4268,95.5
4271,95.5
4275,95.49
4278,95.53
4282,95.6
4285,95.64
4288,95.64
4292,95.63
4295,95.61
4299,95.58
4302,95.57
4305,95.54
4309,95.49
4312,95.45
4316,95.41
4319,95.38
4322,95.35
4326,95.31
4329,95.29
4333,95.27
4336,95.25
4339,95.24
4343,95.23
4346,95.22
4350,95.2
4353,95.19
4356,95.18
4360,95.16
4363,95.15
4367,95.14
4370,95.13
4373,95.12
4377,95.11
4380,95.1
4384,95.1
4387,95.07
4390,95.07
4394,95.07
4397,95.06
4401,95.04
4404,95.03
4407,95.01
4411,95
4414,94.98
4418,94.96
4421,94.93
4424,94.92
4428,94.92
4431,94.89
4435,94.87
4438,94.84
4441,94.82
4445,94.8
4448,94.77
4452,94.76
4455,94.74
4458,94.72
4462,94.7
4465,94.69
4469,94.67
4472,94.64
4475,94.61
4479,94.59
4482,94.56
4486,94.52
4489,94.49
4492,94.45
4496,94.42
4499,94.38
4503,94.35
4506,94.33
4509,94.3
4513,94.27
4516,94.23
4520,94.2
4523,94.18
4526,94.15
4530,94.11
4533,94.07
4537,94.03
4540,94
4543,93.96
4547,93.93
4550,93.9
4554,93.88
4557,93.84
4560,93.79
4564,93.75
4567,93.72
4571,93.68
4574,93.64
4577,93.59
4581,93.54
4584,93.5
4588,93.47
4591,93.44
4594,93.4
4598,93.36
4601,93.33
4605,93.28
4608,93.23
4611,93.18
4615,93.13
4618,93.08
4622,93.04
4625,93.01
4628,92.97
4632,92.93
4635,92.88
4639,92.83
4642,92.78
4645,92.73
4649,92.68
4652,92.64
4656,92.59
4659,92.55
4662,92.5
4666,92.46
4669,92.41
4673,92.37
4676,92.33
4679,92.28
4683,92.23
4686,92.18
4690,92.13
4693,92.07
4696,92.02
4700,91.98
4703,91.93
4707,91.88
4710,91.82
4713,91.76
4717,91.72
4720,91.67
4724,91.62
4727,91.57
4730,91.51
4734,91.47
4737,91.42
4741,91.37
4744,91.32
4747,91.26
4751,91.21
4754,91.16
4758,91.11
4761,91.06
4764,91.01
4768,90.96
4771,90.9
4775,90.84
4778,90.78
4781,90.73
4785,90.68
4788,90.63
4792,90.57
4795,90.52
4798,90.46
4802,90.41
4805,90.35
4809,90.29
4812,90.23
4815,90.18
4819,90.13
4822,90.07
4826,90.02
4829,89.96
4832,89.91
4836,89.85
4839,89.79
4843,89.74
4846,89.68
4849,89.61
4853,89.55
4856,89.5
4860,89.46
4863,89.4
4866,89.35
4870,89.3
4873,89.23
4877,89.17
4880,89.12
4883,89.06
4887,89.01
4890,88.94
4894,88.87
4897,88.81
4900,88.76
4904,88.71
4907,88.65
4911,88.58
4914,88.53
4917,88.48
4921,88.43
4924,88.38
4928,88.32
4931,88.27
4934,88.21
4938,88.16
4941,88.12
4945,88.07
4948,88.02
4951,87.97
4955,87.92
4958,87.88
4962,87.84
4965,87.8
4968,87.75
4972,87.7
4975,87.64
4979,87.6
4982,87.56
4985,87.52
4989,87.49
4992,87.44
4996,87.4
4999,87.36
5002,87.32
5006,87.28
5009,87.24
5013,87.19
5016,87.16
5019,87.14
5023,87.12
5026,87.09
5030,87.06
5033,87.02
5036,86.99
5040,86.96
5043,86.94
5047,86.92
5050,86.9
5053,86.87
5057,86.84
5060,86.81
5064,86.79
5067,86.78
5070,86.77
5074,86.75
5077,86.73
5081,86.72
5084,86.71
5087,86.71
5091,86.69
5094,86.67
5098,86.66
5101,86.64
5104,86.63
5108,86.62
5111,86.61
5115,86.6
5118,86.6
5121,86.59
5125,86.59
5128,86.58
5132,86.57
5135,86.57
5138,86.57
5142,86.57
5145,86.57
5149,86.59
5152,86.59
5155,86.57
5159,86.54
5162,86.54
5166,86.54
5169,86.54
5172,86.54
5176,86.53
5179,86.53
5183,86.53
5186,86.54
5189,86.54
5193,86.53
5196,86.52
5200,86.52
5203,86.52
5206,86.53
5210,86.53
5213,86.54
5217,86.56
5220,86.53
5223,86.51
5227,86.5
5230,86.5
5234,86.5
5237,86.5
5240,86.5
5244,86.5
5247,86.49
5251,86.49
5254,86.49
5257,86.49
5261,86.48
5264,86.47
5268,86.45
5271,86.45
5274,86.45
5278,86.45
5281,86.45
5285,86.44
5288,86.44
5291,86.44
5295,86.47
5298,86.47
5302,86.45
5305,86.44
5308,86.44
5312,86.44
5315,86.43
5319,86.43
5322,86.43
5325,86.44
5329,86.45
5332,86.46
5336,86.47
5339,86.47
5342,86.48
5346,86.49
5349,86.54
5353,86.59
5356,86.61
5359,86.59
5363,86.58
5366,86.57
5370,86.58
5373,86.6
5376,86.63
5380,86.65
5383,86.68
5387,86.7
5390,86.73
5393,86.76
5397,86.79
5400,86.82
5404,86.84
5407,86.87
5410,86.91
5414,86.96
5417,87
5421,87.07
5424,87.15
5427,87.19
5431,87.21
5434,87.2
5438,87.22
5441,87.26
5444,87.31
5448,87.36
5451,87.41
5455,87.45
5458,87.49
5461,87.55
5465,87.63
5468,87.71
5472,87.75
5475,87.76
5478,87.82
5482,87.87
5485,87.93
5489,87.97
5492,88
5495,88.05
5499,88.11
5502,88.17
5506,88.22
5509,88.27
5512,88.32
5516,88.36
5519,88.42
5523,88.49
5526,88.56
5529,88.62
5533,88.66
5536,88.71
5540,88.76
5543,88.8
5546,88.84
5550,88.91
5553,88.98
5557,89.07
5560,89.11
5563,89.15
5567,89.19
5570,89.23
5574,89.3
5577,89.39
5580,89.51
5584,89.57
5587,89.6
5591,89.6
5594,89.61
5597,89.64
5601,89.69
5604,89.77
5608,89.82
5611,89.87
5614,89.93
5618,89.98
5621,90.02
5625,90.06
5628,90.09
5631,90.13
5635,90.19
5638,90.27
5642,90.37
5645,90.45
5648,90.52
5652,90.49
5655,90.49
5659,90.52
5662,90.55
5665,90.57
5669,90.59
5672,90.64
5676,90.7
5679,90.77
5682,90.78
5686,90.8
5689,90.83
5693,90.88
5696,90.93
5699,90.96
5703,90.93
5706,90.95
5710,91
5713,91.08
5716,91.16
5720,91.22
5723,91.24
5727,91.23
5730,91.23
5733,91.23
5737,91.24
5740,91.27
5744,91.3
5747,91.34
5750,91.37
5754,91.4
5757,91.39
5761,91.36
5764,91.44
5767,91.55
5771,91.6
5774,91.6
5778,91.54
5781,91.5
5784,91.5
5788,91.49
5791,91.48
5795,91.47
5798,91.47
5801,91.47
5805,91.47
5808,91.47
5812,91.46
5815,91.47
5818,91.51
5822,91.59
5825,91.68
5829,91.66
5832,91.61
5835,91.55
5839,91.49
5842,91.44
5846,91.38
5849,91.35
5852,91.34
5856,91.33
5859,91.33
5863,91.35
5866,91.36
5869,91.31
5873,91.28
5876,91.27
5880,91.27
5883,91.33
5886,91.33
5890,91.24
5893,91.17
5897,91.15
5900,91.07
5903,90.96
5907,90.85
5910,90.73
5914,90.65
5917,90.6
5920,90.55
5924,90.5
5927,90.45
5931,90.43
5934,90.44
5937,90.51
5941,90.43
5944,90.28
5948,90.14
5951,90
5954,89.88
5958,89.79
5961,89.72
5965,89.65
5968,89.59
5971,89.54
5975,89.48
5978,89.37
5982,89.28
5985,89.23
5988,89.16
5992,89.07
5995,88.96
5999,88.82
6002,88.7
6005,88.6
6009,88.51
6012,88.46
6016,88.38
6019,88.27
6022,88.15
6026,88.04
6029,87.92
6033,87.83
6036,87.75
6039,87.72
6043,87.72
6046,87.76
6050,87.79
6053,87.62
6056,87.34
6060,87.19
6063,87.07
6067,87.02
6070,87.01
6073,86.88
6077,86.74
6080,86.59
6084,86.45
6087,86.31
6090,86.22
6094,86.14
6097,86.05
6101,85.99
6104,85.95
6107,85.93
6111,85.94
6114,85.93
6118,85.81
6121,85.67
6124,85.56
6128,85.45
6131,85.39
6135,85.36
6138,85.34
6141,85.33
6145,85.32
6148,85.3
6152,85.29
6155,85.29
6158,85.3
6162,85.33
6165,85.35
6169,85.36
6172,85.36
6175,85.4
6179,85.47
6182,85.57
6186,85.7
6189,85.78
6192,85.84
6196,85.9
6199,85.97
6203,86.03
6206,86.15
6209,86.32
6213,86.48
6216,86.65
6220,86.82
6223,87.01
6226,87.17
6230,87.32
6233,87.48
6237,87.64
6240,87.81
6243,87.96
6247,88.12
6250,88.26
6254,88.39
6257,88.5
6260,88.6
6264,88.71
6267,88.82
6271,88.93
6274,89.03
6277,89.12
6281,89.21
6284,89.29
6288,89.37
6291,89.44
6294,89.5
6298,89.57
6301,89.63
6305,89.68
6308,89.73
6311,89.79
6315,89.85
6318,89.89
6322,89.94
6325,89.98
6328,90.02
6332,90.07
6335,90.11
6339,90.16
6342,90.27
6345,90.38
6349,90.41
6352,90.41
6356,90.4
6359,90.37
6362,90.38
6366,90.43
6369,90.48
6373,90.53
6376,90.58
6379,90.6
6383,90.56
6386,90.55
6390,90.57
6393,90.59
6396,90.59
6400,90.58
6403,90.59
6407,90.63
6410,90.7
6413,91
6417,91.19
6420,91.09
6424,90.97
6427,90.87
6430,90.77
6434,90.72
6437,90.7
6441,90.68
6444,90.64
6447,90.61
6451,90.6
6454,90.61
6458,90.61
6461,90.58
6464,90.56
6468,90.55
6471,90.55
6475,90.57
6478,90.6
6481,90.65
6485,90.73
6488,90.8
6492,90.87
6495,90.92
6498,90.89
6502,90.76
6505,90.61
6509,90.51
6512,90.42
6515,90.39
6519,90.41
6522,90.42
6526,90.4
6529,90.38
6532,90.35
6536,90.3
6539,90.27
6543,90.26
6546,90.25
6549,90.26
6553,90.26
6556,90.27
6560,90.27
6563,90.27
6566,90.29
6570,90.33
6573,90.33
6577,90.3
6580,90.26
6583,90.19
6587,90.12
6590,90.09
6594,90.08
6597,90.06
6600,90.02
6604,89.97
6607,89.93
6611,89.89
6614,89.85
6617,89.83
6621,89.82
6624,89.82
6628,89.85
6631,89.9
6634,90.05
6638,90.16
6641,90.08
6645,89.98
6648,89.88
6651,89.79
6655,89.69
6658,89.62
6662,89.59
6665,89.59
6668,89.6
6672,89.61
6675,89.62
6679,89.63
6682,89.64
6685,89.62
6689,89.58
6692,89.55
6696,89.5
6699,89.47
6702,89.46
6706,89.47
6709,89.48
6713,89.5
6716,89.51
6719,89.5
6723,89.47
6726,89.44
6730,89.41
6733,89.38
6736,89.35
6740,89.32
6743,89.3
6747,89.3
6750,89.3
6753,89.29
6757,89.29
6760,89.28
6764,89.27
6767,89.25
6770,89.24
6774,89.24
6777,89.25
6781,89.26
6784,89.28
6787,89.3
6791,89.32
6794,89.34
6798,89.33
6801,89.27
6804,89.2
6808,89.16
6811,89.12
6815,89.1
6818,89.1
6821,89.11
6825,89.12
6828,89.13
6832,89.14
6835,89.11
6838,89.08
6842,89.05
6845,89.03
6849,89.02
6852,89.04
6855,89.07
6859,89.1
6862,89.14
6866,89.18
6869,89.18
6872,89.11
6876,89.03
6879,88.98
6883,88.93
6886,88.89
6889,88.87
6893,88.85
6896,88.84
6900,88.83
6903,88.82
6906,88.81
6910,88.8
6913,88.79
6917,88.77
6920,88.74
6923,88.72
6927,88.7
6930,88.68
6934,88.66
6937,88.64
6940,88.62
6944,88.6
6947,88.59
6951,88.58
6954,88.58
6957,88.6
6961,88.6
6964,88.6
6968,88.59
6971,88.56
6974,88.52
6978,88.48
6981,88.46
6985,88.45
6988,88.43
6991,88.42
6995,88.41
6998,88.4
7002,88.38
7005,88.36
7008,88.34
7012,88.32
7015,88.3
7019,88.28
7022,88.28
7025,88.28
7029,88.27
7032,88.26
7036,88.25
7039,88.26
7042,88.27
7046,88.27
7049,88.27
7053,88.27
7056,88.25
7059,88.21
7063,88.17
7066,88.15
7070,88.12
7073,88.11
7076,88.09
7080,88.08
7083,88.07
7087,88.06
7090,88.06
7093,88.05
7097,88.04
7100,88.03
7104,88.02
7107,88.02
7110,88.02
7114,88.01
7117,88.02
7121,88.03
7124,88.02
7127,88.01
7131,88.01
7134,88
7138,87.99
7141,87.98
7144,87.98
7148,87.99
7151,88.01